# File version
1
# Peak profile (0: gauss, 1: pseudo-voigt, 2: lorentz)
       0
# Number of sub-patterns
       5
# Sub-patterns        0
# Number of peaks
       2
# Peak profile
       1
# Width factor
     15.00000
# Range in azimuth: nvalues, and values
        90
       0.0
       4.0
       8.0
      12.0
      16.0
      20.0
      24.0
      28.0
      32.0
      36.0
      40.0
      44.0
      48.0
      52.0
      56.0
      60.0
      64.0
      68.0
      72.0
      76.0
      80.0
      84.0
      88.0
      92.0
      96.0
     100.0
     104.0
     108.0
     112.0
     116.0
     120.0
     124.0
     128.0
     132.0
     136.0
     140.0
     144.0
     148.0
     152.0
     156.0
     160.0
     164.0
     168.0
     172.0
     176.0
     180.0
     184.0
     188.0
     192.0
     196.0
     200.0
     204.0
     208.0
     212.0
     216.0
     220.0
     224.0
     228.0
     232.0
     236.0
     240.0
     244.0
     248.0
     252.0
     256.0
     260.0
     264.0
     268.0
     272.0
     276.0
     280.0
     284.0
     288.0
     292.0
     296.0
     300.0
     304.0
     308.0
     312.0
     316.0
     320.0
     324.0
     328.0
     332.0
     336.0
     340.0
     344.0
     348.0
     352.0
     356.0
# background positions, in 2 theta (left/right)
      10.8000       11.6700
      10.8000       11.6700
      10.8000       11.6700
      10.8000       11.6700
      10.8000       11.6700
      10.8000       11.6700
      10.8000       11.6700
      10.8000       11.6700
      10.8000       11.6700
      10.8000       11.6700
      10.8000       11.6700
      10.8000       11.6700
      10.8000       11.6700
      10.8000       11.6700
      10.8000       11.6700
      10.8000       11.6700
      10.8000       11.6700
      10.8000       11.6700
      10.8000       11.6700
      10.8000       11.6700
      10.8000       11.6700
      10.8000       11.6700
      10.8000       11.6700
      10.8000       11.6700
      10.8000       11.6700
      10.8000       11.6700
      10.8000       11.6700
      10.8000       11.6700
      10.8000       11.6700
      10.8000       11.6700
      10.8000       11.6700
      10.8000       11.6700
      10.8000       11.6700
      10.8000       11.6700
      10.8000       11.6700
      10.8000       11.6700
      10.8000       11.6700
      10.8000       11.6700
      10.8000       11.6700
      10.8000       11.6700
      10.8000       11.6700
      10.8000       11.6700
      10.8000       11.6700
      10.8000       11.6700
      10.8000       11.6700
      10.8000       11.6700
      10.8000       11.6700
      10.8000       11.6700
      10.8000       11.6700
      10.8000       11.6700
      10.8000       11.6700
      10.8000       11.6700
      10.8000       11.6700
      10.8000       11.6700
      10.8000       11.6700
      10.8000       11.6700
      10.8000       11.6700
      10.8000       11.6700
      10.8000       11.6700
      10.8000       11.6700
      10.8000       11.6700
      10.8000       11.6700
      10.8000       11.6700
      10.8000       11.6700
      10.8000       11.6700
      10.8000       11.6700
      10.8000       11.6700
      10.8000       11.6700
      10.8000       11.6700
      10.8000       11.6700
      10.8000       11.6700
      10.8000       11.6700
      10.8000       11.6700
      10.8000       11.6700
      10.8000       11.6700
      10.8000       11.6700
      10.8000       11.6700
      10.8000       11.6700
      10.8000       11.6700
      10.8000       11.6700
      10.8000       11.6700
      10.8000       11.6700
      10.8000       11.6700
      10.8000       11.6700
      10.8000       11.6700
      10.8000       11.6700
      10.8000       11.6700
      10.8000       11.6700
      10.8000       11.6700
      10.8000       11.6700
# background coefficients
       4.3517        3.9216
       4.3517        3.9216
       4.3517        3.9216
       4.3517        3.9216
       4.3517        3.9216
       4.3517        3.9216
       4.3517        3.9216
       4.3517        3.9216
       4.3517        3.9216
       4.3517        3.9216
       4.3517        3.9216
       4.3517        3.9216
       4.3517        3.9216
       4.3517        3.9216
       4.3517        3.9216
       4.3517        3.9216
       4.3517        3.9216
       4.3517        3.9216
       4.3517        3.9216
       4.3517        3.9216
       4.3517        3.9216
       4.3517        3.9216
       4.3517        3.9216
       4.3517        3.9216
       4.3517        3.9216
       4.3517        3.9216
       4.3517        3.9216
       4.3517        3.9216
       4.3517        3.9216
       4.3517        3.9216
       4.3517        3.9216
       4.3517        3.9216
       4.3517        3.9216
       4.3517        3.9216
       4.3517        3.9216
       4.3517        3.9216
       4.3517        3.9216
       4.3517        3.9216
       4.3517        3.9216
       4.3517        3.9216
       4.3517        3.9216
       4.3517        3.9216
       4.3517        3.9216
       4.3517        3.9216
       4.3517        3.9216
       4.3517        3.9216
       4.3517        3.9216
       4.3517        3.9216
       4.3517        3.9216
       4.3517        3.9216
       4.3517        3.9216
       4.3517        3.9216
       4.3517        3.9216
       4.3517        3.9216
       4.3517        3.9216
       4.3517        3.9216
       4.3517        3.9216
       4.3517        3.9216
       4.3517        3.9216
       4.3517        3.9216
       4.3517        3.9216
       4.3517        3.9216
       4.3517        3.9216
       4.3517        3.9216
       4.3517        3.9216
       4.3517        3.9216
       4.3517        3.9216
       4.3517        3.9216
       4.3517        3.9216
       4.3517        3.9216
       4.3517        3.9216
       4.3517        3.9216
       4.3517        3.9216
       4.3517        3.9216
       4.3517        3.9216
       4.3517        3.9216
       4.3517        3.9216
       4.3517        3.9216
       4.3517        3.9216
       4.3517        3.9216
       4.3517        3.9216
       4.3517        3.9216
       4.3517        3.9216
       4.3517        3.9216
       4.3517        3.9216
       4.3517        3.9216
       4.3517        3.9216
       4.3517        3.9216
       4.3517        3.9216
       4.3517        3.9216
# Peak positions (2 theta), intensity, half-width, weight Gauss/Lorentz (for pseudo-voigt),
# peak number        0
      11.2021       44.1055        0.0367        0.1000
      11.2016       43.9644        0.0367        0.1000
      11.2009       43.9079        0.0367        0.1000
      11.2001       43.9373        0.0367        0.1000
      11.1991       44.0519        0.0367        0.1000
      11.1979       44.2494        0.0367        0.1000
      11.1967       44.5261        0.0367        0.1000
      11.1954       44.8766        0.0367        0.1000
      11.1940       45.2940        0.0367        0.1000
      11.1925       45.7702        0.0367        0.1000
      11.1911       46.2959        0.0367        0.1000
      11.1897       46.8610        0.0367        0.1000
      11.1884       47.4543        0.0367        0.1000
      11.1871       48.0645        0.0367        0.1000
      11.1860       48.6795        0.0367        0.1000
      11.1850       49.2874        0.0367        0.1000
      11.1841       49.8764        0.0367        0.1000
      11.1835       50.4351        0.0367        0.1000
      11.1830       50.9525        0.0367        0.1000
      11.1827       51.4185        0.0367        0.1000
      11.1827       51.8242        0.0367        0.1000
      11.1829       52.1616        0.0367        0.1000
      11.1833       52.4241        0.0367        0.1000
      11.1839       52.6066        0.0367        0.1000
      11.1847       52.7056        0.0367        0.1000
      11.1856       52.7192        0.0367        0.1000
      11.1868       52.6471        0.0367        0.1000
      11.1880       52.4906        0.0367        0.1000
      11.1894       52.2529        0.0367        0.1000
      11.1908       51.9386        0.0367        0.1000
      11.1923       51.5537        0.0367        0.1000
      11.1938       51.1058        0.0367        0.1000
      11.1953       50.6036        0.0367        0.1000
      11.1967       50.0569        0.0367        0.1000
      11.1981       49.4763        0.0367        0.1000
      11.1993       48.8731        0.0367        0.1000
      11.2004       48.2590        0.0367        0.1000
      11.2013       47.6460        0.0367        0.1000
      11.2021       47.0461        0.0367        0.1000
      11.2027       46.4708        0.0367        0.1000
      11.2031       45.9315        0.0367        0.1000
      11.2033       45.4386        0.0367        0.1000
      11.2033       45.0017        0.0367        0.1000
      11.2031       44.6293        0.0367        0.1000
      11.2027       44.3286        0.0367        0.1000
      11.2021       44.1055        0.0367        0.1000
      11.2013       43.9644        0.0367        0.1000
      11.2004       43.9079        0.0367        0.1000
      11.1994       43.9373        0.0367        0.1000
      11.1983       44.0519        0.0367        0.1000
      11.1971       44.2494        0.0367        0.1000
      11.1959       44.5261        0.0367        0.1000
      11.1946       44.8766        0.0367        0.1000
      11.1933       45.2940        0.0367        0.1000
      11.1920       45.7702        0.0367        0.1000
      11.1908       46.2959        0.0367        0.1000
      11.1896       46.8610        0.0367        0.1000
      11.1885       47.4543        0.0367        0.1000
      11.1875       48.0645        0.0367        0.1000
      11.1867       48.6795        0.0367        0.1000
      11.1860       49.2874        0.0367        0.1000
      11.1854       49.8764        0.0367        0.1000
      11.1849       50.4351        0.0367        0.1000
      11.1846       50.9525        0.0367        0.1000
      11.1845       51.4185        0.0367        0.1000
      11.1845       51.8242        0.0367        0.1000
      11.1847       52.1616        0.0367        0.1000
      11.1851       52.4241        0.0367        0.1000
      11.1856       52.6066        0.0367        0.1000
      11.1862       52.7056        0.0367        0.1000
      11.1870       52.7192        0.0367        0.1000
      11.1878       52.6471        0.0367        0.1000
      11.1888       52.4906        0.0367        0.1000
      11.1898       52.2529        0.0367        0.1000
      11.1910       51.9386        0.0367        0.1000
      11.1921       51.5537        0.0367        0.1000
      11.1933       51.1058        0.0367        0.1000
      11.1945       50.6036        0.0367        0.1000
      11.1957       50.0569        0.0367        0.1000
      11.1969       49.4763        0.0367        0.1000
      11.1980       48.8731        0.0367        0.1000
      11.1990       48.2590        0.0367        0.1000
      11.2000       47.6460        0.0367        0.1000
      11.2008       47.0461        0.0367        0.1000
      11.2015       46.4708        0.0367        0.1000
      11.2020       45.9315        0.0367        0.1000
      11.2024       45.4386        0.0367        0.1000
      11.2026       45.0017        0.0367        0.1000
      11.2026       44.6293        0.0367        0.1000
      11.2025       44.3286        0.0367        0.1000
# peak number        1
      11.5598      766.7651        0.0343        0.6982
      11.5604      641.3695        0.0343        0.6982
      11.5608      359.4840        0.0343        0.6982
      11.5610      166.3582        0.0343        0.6982
      11.5609       89.0184        0.0343        0.6982
      11.5606       50.8752        0.0343        0.6982
      11.5600       28.7438        0.0343        0.6982
      11.5592       23.2615        0.0343        0.6982
      11.5582       26.4923        0.0343        0.6982
      11.5569       23.0635        0.0343        0.6982
      11.5555       26.0893        0.0343        0.6982
      11.5539       55.1660        0.0343        0.6982
      11.5521       93.2641        0.0343        0.6982
      11.5503      138.4487        0.0343        0.6982
      11.5484      189.8834        0.0343        0.6982
      11.5464      204.4776        0.0343        0.6982
      11.5445      166.6919        0.0343        0.6982
      11.5426      105.9285        0.0343        0.6982
      11.5408       57.6666        0.0343        0.6982
      11.5392       47.7062        0.0343        0.6982
      11.5378       58.6989        0.0343        0.6982
      11.5366       66.6387        0.0343        0.6982
      11.5357       75.4151        0.0343        0.6982
      11.5351       71.9338        0.0343        0.6982
      11.5347       56.7333        0.0343        0.6982
      11.5348       58.0145        0.0343        0.6982
      11.5352       71.2868        0.0343        0.6982
      11.5359       90.5742        0.0343        0.6982
      11.5370      130.7621        0.0343        0.6982
      11.5384      182.5471        0.0343        0.6982
      11.5401      210.3657        0.0343        0.6982
      11.5421      175.9672        0.0343        0.6982
      11.5443       97.1834        0.0343        0.6982
      11.5468       44.2652        0.0343        0.6982
      11.5494       28.0461        0.0343        0.6982
      11.5521       17.8687        0.0343        0.6982
      11.5549       15.7280        0.0343        0.6982
      11.5576       18.7986        0.0343        0.6982
      11.5603       23.0813        0.0343        0.6982
      11.5629       33.6163        0.0343        0.6982
      11.5653       47.3032        0.0343        0.6982
      11.5675       88.9385        0.0343        0.6982
      11.5694      186.7528        0.0343        0.6982
      11.5710      360.9745        0.0343        0.6982
      11.5722      610.2757        0.0343        0.6982
      11.5731      766.7651        0.0343        0.6982
      11.5737      641.3695        0.0343        0.6982
      11.5738      359.4840        0.0343        0.6982
      11.5735      166.3582        0.0343        0.6982
      11.5729       89.0184        0.0343        0.6982
      11.5719       50.8752        0.0343        0.6982
      11.5706       28.7438        0.0343        0.6982
      11.5690       23.2615        0.0343        0.6982
      11.5671       26.4923        0.0343        0.6982
      11.5650       23.0635        0.0343        0.6982
      11.5628       26.0893        0.0343        0.6982
      11.5604       55.1660        0.0343        0.6982
      11.5579       93.2641        0.0343        0.6982
      11.5554      138.4487        0.0343        0.6982
      11.5529      189.8834        0.0343        0.6982
      11.5504      204.4776        0.0343        0.6982
      11.5481      166.6919        0.0343        0.6982
      11.5459      105.9285        0.0343        0.6982
      11.5439       57.6666        0.0343        0.6982
      11.5420       47.7062        0.0343        0.6982
      11.5405       58.6989        0.0343        0.6982
      11.5391       66.6387        0.0343        0.6982
      11.5380       75.4151        0.0343        0.6982
      11.5372       71.9338        0.0343        0.6982
      11.5367       56.7333        0.0343        0.6982
      11.5365       58.0145        0.0343        0.6982
      11.5365       71.2868        0.0343        0.6982
      11.5367       90.5742        0.0343        0.6982
      11.5372      130.7621        0.0343        0.6982
      11.5380      182.5471        0.0343        0.6982
      11.5389      210.3657        0.0343        0.6982
      11.5401      175.9672        0.0343        0.6982
      11.5413       97.1834        0.0343        0.6982
      11.5428       44.2652        0.0343        0.6982
      11.5443       28.0461        0.0343        0.6982
      11.5459       17.8687        0.0343        0.6982
      11.5475       15.7280        0.0343        0.6982
      11.5492       18.7986        0.0343        0.6982
      11.5508       23.0813        0.0343        0.6982
      11.5525       33.6163        0.0343        0.6982
      11.5540       47.3032        0.0343        0.6982
      11.5555       88.9385        0.0343        0.6982
      11.5568      186.7528        0.0343        0.6982
      11.5580      360.9745        0.0343        0.6982
      11.5590      610.2757        0.0343        0.6982
# Sub-patterns        1
# Number of peaks
       1
# Peak profile
       1
# Width factor
     15.00000
# Range in azimuth: nvalues, and values
        90
       0.0
       4.0
       8.0
      12.0
      16.0
      20.0
      24.0
      28.0
      32.0
      36.0
      40.0
      44.0
      48.0
      52.0
      56.0
      60.0
      64.0
      68.0
      72.0
      76.0
      80.0
      84.0
      88.0
      92.0
      96.0
     100.0
     104.0
     108.0
     112.0
     116.0
     120.0
     124.0
     128.0
     132.0
     136.0
     140.0
     144.0
     148.0
     152.0
     156.0
     160.0
     164.0
     168.0
     172.0
     176.0
     180.0
     184.0
     188.0
     192.0
     196.0
     200.0
     204.0
     208.0
     212.0
     216.0
     220.0
     224.0
     228.0
     232.0
     236.0
     240.0
     244.0
     248.0
     252.0
     256.0
     260.0
     264.0
     268.0
     272.0
     276.0
     280.0
     284.0
     288.0
     292.0
     296.0
     300.0
     304.0
     308.0
     312.0
     316.0
     320.0
     324.0
     328.0
     332.0
     336.0
     340.0
     344.0
     348.0
     352.0
     356.0
# background positions, in 2 theta (left/right)
      16.1000       16.6000
      16.1000       16.6000
      16.1000       16.6000
      16.1000       16.6000
      16.1000       16.6000
      16.1000       16.6000
      16.1000       16.6000
      16.1000       16.6000
      16.1000       16.6000
      16.1000       16.6000
      16.1000       16.6000
      16.1000       16.6000
      16.1000       16.6000
      16.1000       16.6000
      16.1000       16.6000
      16.1000       16.6000
      16.1000       16.6000
      16.1000       16.6000
      16.1000       16.6000
      16.1000       16.6000
      16.1000       16.6000
      16.1000       16.6000
      16.1000       16.6000
      16.1000       16.6000
      16.1000       16.6000
      16.1000       16.6000
      16.1000       16.6000
      16.1000       16.6000
      16.1000       16.6000
      16.1000       16.6000
      16.1000       16.6000
      16.1000       16.6000
      16.1000       16.6000
      16.1000       16.6000
      16.1000       16.6000
      16.1000       16.6000
      16.1000       16.6000
      16.1000       16.6000
      16.1000       16.6000
      16.1000       16.6000
      16.1000       16.6000
      16.1000       16.6000
      16.1000       16.6000
      16.1000       16.6000
      16.1000       16.6000
      16.1000       16.6000
      16.1000       16.6000
      16.1000       16.6000
      16.1000       16.6000
      16.1000       16.6000
      16.1000       16.6000
      16.1000       16.6000
      16.1000       16.6000
      16.1000       16.6000
      16.1000       16.6000
      16.1000       16.6000
      16.1000       16.6000
      16.1000       16.6000
      16.1000       16.6000
      16.1000       16.6000
      16.1000       16.6000
      16.1000       16.6000
      16.1000       16.6000
      16.1000       16.6000
      16.1000       16.6000
      16.1000       16.6000
      16.1000       16.6000
      16.1000       16.6000
      16.1000       16.6000
      16.1000       16.6000
      16.1000       16.6000
      16.1000       16.6000
      16.1000       16.6000
      16.1000       16.6000
      16.1000       16.6000
      16.1000       16.6000
      16.1000       16.6000
      16.1000       16.6000
      16.1000       16.6000
      16.1000       16.6000
      16.1000       16.6000
      16.1000       16.6000
      16.1000       16.6000
      16.1000       16.6000
      16.1000       16.6000
      16.1000       16.6000
      16.1000       16.6000
      16.1000       16.6000
      16.1000       16.6000
      16.1000       16.6000
# background coefficients
       5.0338        0.2329
       5.0338        0.2329
       5.0338        0.2329
       5.0338        0.2329
       5.0338        0.2329
       5.0338        0.2329
       5.0338        0.2329
       5.0338        0.2329
       5.0338        0.2329
       5.0338        0.2329
       5.0338        0.2329
       5.0338        0.2329
       5.0338        0.2329
       5.0338        0.2329
       5.0338        0.2329
       5.0338        0.2329
       5.0338        0.2329
       5.0338        0.2329
       5.0338        0.2329
       5.0338        0.2329
       5.0338        0.2329
       5.0338        0.2329
       5.0338        0.2329
       5.0338        0.2329
       5.0338        0.2329
       5.0338        0.2329
       5.0338        0.2329
       5.0338        0.2329
       5.0338        0.2329
       5.0338        0.2329
       5.0338        0.2329
       5.0338        0.2329
       5.0338        0.2329
       5.0338        0.2329
       5.0338        0.2329
       5.0338        0.2329
       5.0338        0.2329
       5.0338        0.2329
       5.0338        0.2329
       5.0338        0.2329
       5.0338        0.2329
       5.0338        0.2329
       5.0338        0.2329
       5.0338        0.2329
       5.0338        0.2329
       5.0338        0.2329
       5.0338        0.2329
       5.0338        0.2329
       5.0338        0.2329
       5.0338        0.2329
       5.0338        0.2329
       5.0338        0.2329
       5.0338        0.2329
       5.0338        0.2329
       5.0338        0.2329
       5.0338        0.2329
       5.0338        0.2329
       5.0338        0.2329
       5.0338        0.2329
       5.0338        0.2329
       5.0338        0.2329
       5.0338        0.2329
       5.0338        0.2329
       5.0338        0.2329
       5.0338        0.2329
       5.0338        0.2329
       5.0338        0.2329
       5.0338        0.2329
       5.0338        0.2329
       5.0338        0.2329
       5.0338        0.2329
       5.0338        0.2329
       5.0338        0.2329
       5.0338        0.2329
       5.0338        0.2329
       5.0338        0.2329
       5.0338        0.2329
       5.0338        0.2329
       5.0338        0.2329
       5.0338        0.2329
       5.0338        0.2329
       5.0338        0.2329
       5.0338        0.2329
       5.0338        0.2329
       5.0338        0.2329
       5.0338        0.2329
       5.0338        0.2329
       5.0338        0.2329
       5.0338        0.2329
       5.0338        0.2329
# Peak positions (2 theta), intensity, half-width, weight Gauss/Lorentz (for pseudo-voigt),
# peak number        0
      16.3815        2.4178        0.0561        0.4676
      16.3835        2.5609        0.0561        0.4676
      16.3850        2.5770        0.0561        0.4676
      16.3860        2.9835        0.0561        0.4676
      16.3863        3.8975        0.0561        0.4676
      16.3861        4.9447        0.0561        0.4676
      16.3853        5.9528        0.0561        0.4676
      16.3838        7.4366        0.0561        0.4676
      16.3818       10.0485        0.0561        0.4676
      16.3792       13.4831        0.0561        0.4676
      16.3762       16.1919        0.0561        0.4676
      16.3727       16.5177        0.0561        0.4676
      16.3688       14.2260        0.0561        0.4676
      16.3648       10.7845        0.0561        0.4676
      16.3606        7.9891        0.0561        0.4676
      16.3563        6.3694        0.0561        0.4676
      16.3522        5.1327        0.0561        0.4676
      16.3482        3.7170        0.0561        0.4676
      16.3444        3.1200        0.0561        0.4676
      16.3411        5.2458        0.0561        0.4676
      16.3382       10.6652        0.0561        0.4676
      16.3358       17.1399        0.0561        0.4676
      16.3340       20.7817        0.0561        0.4676
      16.3329       19.1049        0.0561        0.4676
      16.3323       13.1674        0.0561        0.4676
      16.3325        6.7130        0.0561        0.4676
      16.3332        3.1047        0.0561        0.4676
      16.3346        2.9396        0.0561        0.4676
      16.3366        4.4308        0.0561        0.4676
      16.3391        5.8053        0.0561        0.4676
      16.3420        7.0703        0.0561        0.4676
      16.3453        9.4297        0.0561        0.4676
      16.3489       13.2655        0.0561        0.4676
      16.3527       17.0796        0.0561        0.4676
      16.3567       18.6219        0.0561        0.4676
      16.3606       16.9981        0.0561        0.4676
      16.3645       13.5093        0.0561        0.4676
      16.3683       10.3805        0.0561        0.4676
      16.3719        8.7584        0.0561        0.4676
      16.3751        8.0112        0.0561        0.4676
      16.3781        6.8487        0.0561        0.4676
      16.3806        4.8713        0.0561        0.4676
      16.3828        2.8953        0.0561        0.4676
      16.3845        1.9089        0.0561        0.4676
      16.3858        1.9977        0.0561        0.4676
      16.3867        2.4178        0.0561        0.4676
      16.3871        2.5609        0.0561        0.4676
      16.3871        2.5770        0.0561        0.4676
      16.3867        2.9835        0.0561        0.4676
      16.3859        3.8975        0.0561        0.4676
      16.3849        4.9447        0.0561        0.4676
      16.3835        5.9528        0.0561        0.4676
      16.3819        7.4366        0.0561        0.4676
      16.3800       10.0485        0.0561        0.4676
      16.3780       13.4831        0.0561        0.4676
      16.3758       16.1919        0.0561        0.4676
      16.3735       16.5177        0.0561        0.4676
      16.3711       14.2260        0.0561        0.4676
      16.3687       10.7845        0.0561        0.4676
      16.3662        7.9891        0.0561        0.4676
      16.3637        6.3694        0.0561        0.4676
      16.3612        5.1327        0.0561        0.4676
      16.3588        3.7170        0.0561        0.4676
      16.3564        3.1200        0.0561        0.4676
      16.3541        5.2458        0.0561        0.4676
      16.3520       10.6652        0.0561        0.4676
      16.3499       17.1399        0.0561        0.4676
      16.3481       20.7817        0.0561        0.4676
      16.3464       19.1049        0.0561        0.4676
      16.3450       13.1674        0.0561        0.4676
      16.3438        6.7130        0.0561        0.4676
      16.3429        3.1047        0.0561        0.4676
      16.3423        2.9396        0.0561        0.4676
      16.3421        4.4308        0.0561        0.4676
      16.3423        5.8053        0.0561        0.4676
      16.3428        7.0703        0.0561        0.4676
      16.3437        9.4297        0.0561        0.4676
      16.3450       13.2655        0.0561        0.4676
      16.3467       17.0796        0.0561        0.4676
      16.3488       18.6219        0.0561        0.4676
      16.3512       16.9981        0.0561        0.4676
      16.3539       13.5093        0.0561        0.4676
      16.3569       10.3805        0.0561        0.4676
      16.3600        8.7584        0.0561        0.4676
      16.3633        8.0112        0.0561        0.4676
      16.3667        6.8487        0.0561        0.4676
      16.3700        4.8713        0.0561        0.4676
      16.3733        2.8953        0.0561        0.4676
      16.3763        1.9089        0.0561        0.4676
      16.3791        1.9977        0.0561        0.4676
# Sub-patterns        2
# Number of peaks
       1
# Peak profile
       1
# Width factor
     15.00000
# Range in azimuth: nvalues, and values
        90
       0.0
       4.0
       8.0
      12.0
      16.0
      20.0
      24.0
      28.0
      32.0
      36.0
      40.0
      44.0
      48.0
      52.0
      56.0
      60.0
      64.0
      68.0
      72.0
      76.0
      80.0
      84.0
      88.0
      92.0
      96.0
     100.0
     104.0
     108.0
     112.0
     116.0
     120.0
     124.0
     128.0
     132.0
     136.0
     140.0
     144.0
     148.0
     152.0
     156.0
     160.0
     164.0
     168.0
     172.0
     176.0
     180.0
     184.0
     188.0
     192.0
     196.0
     200.0
     204.0
     208.0
     212.0
     216.0
     220.0
     224.0
     228.0
     232.0
     236.0
     240.0
     244.0
     248.0
     252.0
     256.0
     260.0
     264.0
     268.0
     272.0
     276.0
     280.0
     284.0
     288.0
     292.0
     296.0
     300.0
     304.0
     308.0
     312.0
     316.0
     320.0
     324.0
     328.0
     332.0
     336.0
     340.0
     344.0
     348.0
     352.0
     356.0
# background positions, in 2 theta (left/right)
      19.8000       20.2700
      19.8000       20.2700
      19.8000       20.2700
      19.8000       20.2700
      19.8000       20.2700
      19.8000       20.2700
      19.8000       20.2700
      19.8000       20.2700
      19.8000       20.2700
      19.8000       20.2700
      19.8000       20.2700
      19.8000       20.2700
      19.8000       20.2700
      19.8000       20.2700
      19.8000       20.2700
      19.8000       20.2700
      19.8000       20.2700
      19.8000       20.2700
      19.8000       20.2700
      19.8000       20.2700
      19.8000       20.2700
      19.8000       20.2700
      19.8000       20.2700
      19.8000       20.2700
      19.8000       20.2700
      19.8000       20.2700
      19.8000       20.2700
      19.8000       20.2700
      19.8000       20.2700
      19.8000       20.2700
      19.8000       20.2700
      19.8000       20.2700
      19.8000       20.2700
      19.8000       20.2700
      19.8000       20.2700
      19.8000       20.2700
      19.8000       20.2700
      19.8000       20.2700
      19.8000       20.2700
      19.8000       20.2700
      19.8000       20.2700
      19.8000       20.2700
      19.8000       20.2700
      19.8000       20.2700
      19.8000       20.2700
      19.8000       20.2700
      19.8000       20.2700
      19.8000       20.2700
      19.8000       20.2700
      19.8000       20.2700
      19.8000       20.2700
      19.8000       20.2700
      19.8000       20.2700
      19.8000       20.2700
      19.8000       20.2700
      19.8000       20.2700
      19.8000       20.2700
      19.8000       20.2700
      19.8000       20.2700
      19.8000       20.2700
      19.8000       20.2700
      19.8000       20.2700
      19.8000       20.2700
      19.8000       20.2700
      19.8000       20.2700
      19.8000       20.2700
      19.8000       20.2700
      19.8000       20.2700
      19.8000       20.2700
      19.8000       20.2700
      19.8000       20.2700
      19.8000       20.2700
      19.8000       20.2700
      19.8000       20.2700
      19.8000       20.2700
      19.8000       20.2700
      19.8000       20.2700
      19.8000       20.2700
      19.8000       20.2700
      19.8000       20.2700
      19.8000       20.2700
      19.8000       20.2700
      19.8000       20.2700
      19.8000       20.2700
      19.8000       20.2700
      19.8000       20.2700
      19.8000       20.2700
      19.8000       20.2700
      19.8000       20.2700
      19.8000       20.2700
# background coefficients
       5.0674        0.5862
       5.0674        0.5862
       5.0674        0.5862
       5.0674        0.5862
       5.0674        0.5862
       5.0674        0.5862
       5.0674        0.5862
       5.0674        0.5862
       5.0674        0.5862
       5.0674        0.5862
       5.0674        0.5862
       5.0674        0.5862
       5.0674        0.5862
       5.0674        0.5862
       5.0674        0.5862
       5.0674        0.5862
       5.0674        0.5862
       5.0674        0.5862
       5.0674        0.5862
       5.0674        0.5862
       5.0674        0.5862
       5.0674        0.5862
       5.0674        0.5862
       5.0674        0.5862
       5.0674        0.5862
       5.0674        0.5862
       5.0674        0.5862
       5.0674        0.5862
       5.0674        0.5862
       5.0674        0.5862
       5.0674        0.5862
       5.0674        0.5862
       5.0674        0.5862
       5.0674        0.5862
       5.0674        0.5862
       5.0674        0.5862
       5.0674        0.5862
       5.0674        0.5862
       5.0674        0.5862
       5.0674        0.5862
       5.0674        0.5862
       5.0674        0.5862
       5.0674        0.5862
       5.0674        0.5862
       5.0674        0.5862
       5.0674        0.5862
       5.0674        0.5862
       5.0674        0.5862
       5.0674        0.5862
       5.0674        0.5862
       5.0674        0.5862
       5.0674        0.5862
       5.0674        0.5862
       5.0674        0.5862
       5.0674        0.5862
       5.0674        0.5862
       5.0674        0.5862
       5.0674        0.5862
       5.0674        0.5862
       5.0674        0.5862
       5.0674        0.5862
       5.0674        0.5862
       5.0674        0.5862
       5.0674        0.5862
       5.0674        0.5862
       5.0674        0.5862
       5.0674        0.5862
       5.0674        0.5862
       5.0674        0.5862
       5.0674        0.5862
       5.0674        0.5862
       5.0674        0.5862
       5.0674        0.5862
       5.0674        0.5862
       5.0674        0.5862
       5.0674        0.5862
       5.0674        0.5862
       5.0674        0.5862
       5.0674        0.5862
       5.0674        0.5862
       5.0674        0.5862
       5.0674        0.5862
       5.0674        0.5862
       5.0674        0.5862
       5.0674        0.5862
       5.0674        0.5862
       5.0674        0.5862
       5.0674        0.5862
       5.0674        0.5862
       5.0674        0.5862
# Peak positions (2 theta), intensity, half-width, weight Gauss/Lorentz (for pseudo-voigt),
# peak number        0
      20.0958        4.1098        0.0544        0.7500
      20.0976        3.5056        0.0544        0.7824
      20.0988        2.5612        0.0544        0.8092
      20.0993        5.0691        0.0544        0.8301
      20.0992       12.7021        0.0544        0.8445
      20.0984       22.8762        0.0544        0.8522
      20.0969       30.3554        0.0544        0.8531
      20.0948       31.2391        0.0544        0.8471
      20.0921       25.9099        0.0544        0.8343
      20.0889       18.5312        0.0544        0.8150
      20.0852       13.7228        0.0544        0.7896
      20.0811       13.3156        0.0544        0.7586
      20.0768       15.7048        0.0544        0.7225
      20.0722       17.8846        0.0544        0.6821
      20.0676       18.0857        0.0544        0.6381
      20.0630       16.8326        0.0544        0.5915
      20.0586       15.9377        0.0544        0.5431
      20.0544       16.7136        0.0544        0.4938
      20.0505       19.0166        0.0544        0.4447
      20.0470       21.6713        0.0544        0.3966
      20.0441       23.5665        0.0544        0.3506
      20.0418       24.3606        0.0544        0.3074
      20.0400       24.3507        0.0544        0.2680
      20.0390       23.8837        0.0544        0.2332
      20.0386       22.9830        0.0544        0.2035
      20.0389       21.5112        0.0544        0.1796
      20.0399       19.6255        0.0544        0.1619
      20.0416       17.9973        0.0544        0.1508
      20.0438       17.4583        0.0544        0.1465
      20.0467       18.2558        0.0544        0.1491
      20.0500       19.5551        0.0544        0.1585
      20.0538       19.8153        0.0544        0.1746
      20.0579       18.0336        0.0544        0.1969
      20.0622       14.9792        0.0544        0.2252
      20.0667       13.1966        0.0544        0.2589
      20.0713       15.3068        0.0544        0.2972
      20.0759       21.6211        0.0544        0.3395
      20.0804       29.0570        0.0544        0.3849
      20.0846       32.6910        0.0544        0.4325
      20.0886       29.1839        0.0544        0.4815
      20.0923       19.4827        0.0544        0.5308
      20.0956        8.4269        0.0544        0.5795
      20.0985        1.3063        0.0544        0.6267
      20.1009        0.0712        0.0544        0.6714
      20.1028        2.3540        0.0544        0.7128
      20.1041        4.1098        0.0544        0.7500
      20.1050        3.5056        0.0544        0.7824
      20.1053        2.5612        0.0544        0.8092
      20.1051        5.0691        0.0544        0.8301
      20.1043       12.7021        0.0544        0.8445
      20.1031       22.8762        0.0544        0.8522
      20.1015       30.3554        0.0544        0.8531
      20.0994       31.2391        0.0544        0.8471
      20.0969       25.9099        0.0544        0.8343
      20.0941       18.5312        0.0544        0.8150
      20.0911       13.7228        0.0544        0.7896
      20.0878       13.3156        0.0544        0.7586
      20.0842       15.7048        0.0544        0.7225
      20.0806       17.8846        0.0544        0.6821
      20.0769       18.0857        0.0544        0.6381
      20.0731       16.8326        0.0544        0.5915
      20.0694       15.9377        0.0544        0.5431
      20.0658       16.7136        0.0544        0.4938
      20.0623       19.0166        0.0544        0.4447
      20.0589       21.6713        0.0544        0.3966
      20.0559       23.5665        0.0544        0.3506
      20.0531       24.3606        0.0544        0.3074
      20.0506       24.3507        0.0544        0.2680
      20.0485       23.8837        0.0544        0.2332
      20.0469       22.9830        0.0544        0.2035
      20.0457       21.5112        0.0544        0.1796
      20.0450       19.6255        0.0544        0.1619
      20.0447       17.9973        0.0544        0.1508
      20.0450       17.4583        0.0544        0.1465
      20.0458       18.2558        0.0544        0.1491
      20.0471       19.5551        0.0544        0.1585
      20.0490       19.8153        0.0544        0.1746
      20.0512       18.0336        0.0544        0.1969
      20.0540       14.9792        0.0544        0.2252
      20.0571       13.1966        0.0544        0.2589
      20.0605       15.3068        0.0544        0.2972
      20.0642       21.6211        0.0544        0.3395
      20.0681       29.0570        0.0544        0.3849
      20.0721       32.6910        0.0544        0.4325
      20.0761       29.1839        0.0544        0.4815
      20.0801       19.4827        0.0544        0.5308
      20.0839        8.4269        0.0544        0.5795
      20.0875        1.3063        0.0544        0.6267
      20.0907        0.0712        0.0544        0.6714
      20.0935        2.3540        0.0544        0.7128
# Sub-patterns        3
# Number of peaks
       1
# Peak profile
       1
# Width factor
     15.00000
# Range in azimuth: nvalues, and values
        90
       0.0
       4.0
       8.0
      12.0
      16.0
      20.0
      24.0
      28.0
      32.0
      36.0
      40.0
      44.0
      48.0
      52.0
      56.0
      60.0
      64.0
      68.0
      72.0
      76.0
      80.0
      84.0
      88.0
      92.0
      96.0
     100.0
     104.0
     108.0
     112.0
     116.0
     120.0
     124.0
     128.0
     132.0
     136.0
     140.0
     144.0
     148.0
     152.0
     156.0
     160.0
     164.0
     168.0
     172.0
     176.0
     180.0
     184.0
     188.0
     192.0
     196.0
     200.0
     204.0
     208.0
     212.0
     216.0
     220.0
     224.0
     228.0
     232.0
     236.0
     240.0
     244.0
     248.0
     252.0
     256.0
     260.0
     264.0
     268.0
     272.0
     276.0
     280.0
     284.0
     288.0
     292.0
     296.0
     300.0
     304.0
     308.0
     312.0
     316.0
     320.0
     324.0
     328.0
     332.0
     336.0
     340.0
     344.0
     348.0
     352.0
     356.0
# background positions, in 2 theta (left/right)
      23.1001       23.5000
      23.1001       23.5000
      23.1001       23.5000
      23.1001       23.5000
      23.1001       23.5000
      23.1001       23.5000
      23.1001       23.5000
      23.1001       23.5000
      23.1001       23.5000
      23.1001       23.5000
      23.1001       23.5000
      23.1001       23.5000
      23.1001       23.5000
      23.1001       23.5000
      23.1001       23.5000
      23.1001       23.5000
      23.1001       23.5000
      23.1001       23.5000
      23.1001       23.5000
      23.1001       23.5000
      23.1001       23.5000
      23.1001       23.5000
      23.1001       23.5000
      23.1001       23.5000
      23.1001       23.5000
      23.1001       23.5000
      23.1001       23.5000
      23.1001       23.5000
      23.1001       23.5000
      23.1001       23.5000
      23.1001       23.5000
      23.1001       23.5000
      23.1001       23.5000
      23.1001       23.5000
      23.1001       23.5000
      23.1001       23.5000
      23.1001       23.5000
      23.1001       23.5000
      23.1001       23.5000
      23.1001       23.5000
      23.1001       23.5000
      23.1001       23.5000
      23.1001       23.5000
      23.1001       23.5000
      23.1001       23.5000
      23.1001       23.5000
      23.1001       23.5000
      23.1001       23.5000
      23.1001       23.5000
      23.1001       23.5000
      23.1001       23.5000
      23.1001       23.5000
      23.1001       23.5000
      23.1001       23.5000
      23.1001       23.5000
      23.1001       23.5000
      23.1001       23.5000
      23.1001       23.5000
      23.1001       23.5000
      23.1001       23.5000
      23.1001       23.5000
      23.1001       23.5000
      23.1001       23.5000
      23.1001       23.5000
      23.1001       23.5000
      23.1001       23.5000
      23.1001       23.5000
      23.1001       23.5000
      23.1001       23.5000
      23.1001       23.5000
      23.1001       23.5000
      23.1001       23.5000
      23.1001       23.5000
      23.1001       23.5000
      23.1001       23.5000
      23.1001       23.5000
      23.1001       23.5000
      23.1001       23.5000
      23.1001       23.5000
      23.1001       23.5000
      23.1001       23.5000
      23.1001       23.5000
      23.1001       23.5000
      23.1001       23.5000
      23.1001       23.5000
      23.1001       23.5000
      23.1001       23.5000
      23.1001       23.5000
      23.1001       23.5000
      23.1001       23.5000
# background coefficients
       6.2056       -4.8373
       6.1943       -4.7549
       6.1901       -4.6585
       6.1929       -4.5501
       6.2026       -4.4318
       6.2189       -4.3059
       6.2416       -4.1747
       6.2701       -4.0410
       6.3039       -3.9072
       6.3422       -3.7760
       6.3842       -3.6500
       6.4291       -3.5317
       6.4759       -3.4232
       6.5237       -3.3269
       6.5715       -3.2445
       6.6183       -3.1777
       6.6633       -3.1279
       6.7054       -3.0960
       6.7438       -3.0826
       6.7777       -3.0880
       6.8064       -3.1123
       6.8294       -3.1549
       6.8461       -3.2149
       6.8562       -3.2914
       6.8595       -3.3828
       6.8559       -3.4874
       6.8454       -3.6032
       6.8283       -3.7279
       6.8048       -3.8592
       6.7754       -3.9945
       6.7406       -4.1313
       6.7012       -4.2668
       6.6578       -4.3986
       6.6114       -4.5240
       6.5629       -4.6406
       6.5131       -4.7462
       6.4632       -4.8389
       6.4140       -4.9167
       6.3666       -4.9781
       6.3218       -5.0222
       6.2807       -5.0479
       6.2439       -5.0548
       6.2124       -5.0428
       6.1866       -5.0121
       6.1672       -4.9634
       6.1545       -4.8975
       6.1489       -4.8159
       6.1505       -4.7200
       6.1593       -4.6118
       6.1752       -4.4934
       6.1979       -4.3670
       6.2270       -4.2351
       6.2621       -4.1004
       6.3023       -3.9653
       6.3472       -3.8325
       6.3957       -3.7046
       6.4470       -3.5841
       6.5002       -3.4733
       6.5543       -3.3743
       6.6082       -3.2891
       6.6610       -3.2192
       6.7116       -3.1661
       6.7592       -3.1307
       6.8028       -3.1137
       6.8417       -3.1154
       6.8751       -3.1357
       6.9023       -3.1742
       6.9230       -3.2302
       6.9367       -3.3024
       6.9431       -3.3896
       6.9423       -3.4899
       6.9341       -3.6014
       6.9189       -3.7218
       6.8968       -3.8488
       6.8684       -3.9799
       6.8342       -4.1125
       6.7949       -4.2440
       6.7512       -4.3718
       6.7040       -4.4934
       6.6542       -4.6064
       6.6028       -4.7085
       6.5507       -4.7978
       6.4990       -4.8725
       6.4485       -4.9311
       6.4004       -4.9725
       6.3555       -4.9957
       6.3147       -5.0005
       6.2786       -4.9866
       6.2481       -4.9543
       6.2236       -4.9042
# Peak positions (2 theta), intensity, half-width, weight Gauss/Lorentz (for pseudo-voigt),
# peak number        0
      23.2506        8.3240        0.0566        0.4930
      23.2530        7.5003        0.0566        0.4930
      23.2546        5.9079        0.0566        0.4930
      23.2555        3.9510        0.0566        0.4930
      23.2555        2.2025        0.0566        0.4930
      23.2547        1.1700        0.0566        0.4930
      23.2531        0.9167        0.0566        0.4930
      23.2508        0.9644        0.0566        0.4930
      23.2478        0.7331        0.0566        0.4930
      23.2441        0.1954        0.0566        0.4930
      23.2399        0.0727        0.0566        0.4930
      23.2352        1.2498        0.0566        0.4930
      23.2301        3.8589        0.0566        0.4930
      23.2247        6.8978        0.0566        0.4930
      23.2192        8.8227        0.0566        0.4930
      23.2136        8.6606        0.0566        0.4930
      23.2081        6.7000        0.0566        0.4930
      23.2028        4.2039        0.0566        0.4930
      23.1977        2.4644        0.0566        0.4930
      23.1931        2.0185        0.0566        0.4930
      23.1890        2.5603        0.0566        0.4930
      23.1854        3.4022        0.0566        0.4930
      23.1825        3.9615        0.0566        0.4930
      23.1804        3.9598        0.0566        0.4930
      23.1790        3.4312        0.0566        0.4930
      23.1784        2.7324        0.0566        0.4930
      23.1787        2.4976        0.0566        0.4930
      23.1798        3.3294        0.0566        0.4930
      23.1818        5.2655        0.0566        0.4930
      23.1845        7.4699        0.0566        0.4930
      23.1880        8.6004        0.0566        0.4930
      23.1922        7.7390        0.0566        0.4930
      23.1970        5.1529        0.0566        0.4930
      23.2024        2.1659        0.0566        0.4930
      23.2082        0.1760        0.0566        0.4930
      23.2143       -0.3520        0.0566        0.4930
      23.2207       -0.0457        0.0566        0.4930
      23.2271        0.1469        0.0566        0.4930
      23.2336       -0.1076        0.0566        0.4930
      23.2399       -0.2871        0.0566        0.4930
      23.2460        0.3942        0.0566        0.4930
      23.2518        2.2026        0.0566        0.4930
      23.2570        4.6367        0.0566        0.4930
      23.2617        6.8325        0.0566        0.4930
      23.2657        8.1333        0.0566        0.4930
      23.2690        8.3240        0.0566        0.4930
      23.2715        7.5003        0.0566        0.4930
      23.2731        5.9079        0.0566        0.4930
      23.2738        3.9510        0.0566        0.4930
      23.2737        2.2025        0.0566        0.4930
      23.2727        1.1700        0.0566        0.4930
      23.2707        0.9167        0.0566        0.4930
      23.2680        0.9644        0.0566        0.4930
      23.2644        0.7331        0.0566        0.4930
      23.2602        0.1954        0.0566        0.4930
      23.2552        0.0727        0.0566        0.4930
      23.2498        1.2498        0.0566        0.4930
      23.2438        3.8589        0.0566        0.4930
      23.2376        6.8978        0.0566        0.4930
      23.2311        8.8227        0.0566        0.4930
      23.2245        8.6606        0.0566        0.4930
      23.2179        6.7000        0.0566        0.4930
      23.2115        4.2039        0.0566        0.4930
      23.2053        2.4644        0.0566        0.4930
      23.1995        2.0185        0.0566        0.4930
      23.1941        2.5603        0.0566        0.4930
      23.1893        3.4022        0.0566        0.4930
      23.1852        3.9615        0.0566        0.4930
      23.1817        3.9598        0.0566        0.4930
      23.1791        3.4312        0.0566        0.4930
      23.1772        2.7324        0.0566        0.4930
      23.1762        2.4976        0.0566        0.4930
      23.1761        3.3294        0.0566        0.4930
      23.1768        5.2655        0.0566        0.4930
      23.1783        7.4699        0.0566        0.4930
      23.1806        8.6004        0.0566        0.4930
      23.1836        7.7390        0.0566        0.4930
      23.1873        5.1529        0.0566        0.4930
      23.1916        2.1659        0.0566        0.4930
      23.1964        0.1760        0.0566        0.4930
      23.2016       -0.3520        0.0566        0.4930
      23.2070       -0.0457        0.0566        0.4930
      23.2127        0.1469        0.0566        0.4930
      23.2184       -0.1076        0.0566        0.4930
      23.2240       -0.2871        0.0566        0.4930
      23.2295        0.3942        0.0566        0.4930
      23.2347        2.2026        0.0566        0.4930
      23.2395        4.6367        0.0566        0.4930
      23.2438        6.8325        0.0566        0.4930
      23.2475        8.1333        0.0566        0.4930
# Sub-patterns        4
# Number of peaks
       1
# Peak profile
       1
# Width factor
     15.00000
# Range in azimuth: nvalues, and values
        90
       0.0
       4.0
       8.0
      12.0
      16.0
      20.0
      24.0
      28.0
      32.0
      36.0
      40.0
      44.0
      48.0
      52.0
      56.0
      60.0
      64.0
      68.0
      72.0
      76.0
      80.0
      84.0
      88.0
      92.0
      96.0
     100.0
     104.0
     108.0
     112.0
     116.0
     120.0
     124.0
     128.0
     132.0
     136.0
     140.0
     144.0
     148.0
     152.0
     156.0
     160.0
     164.0
     168.0
     172.0
     176.0
     180.0
     184.0
     188.0
     192.0
     196.0
     200.0
     204.0
     208.0
     212.0
     216.0
     220.0
     224.0
     228.0
     232.0
     236.0
     240.0
     244.0
     248.0
     252.0
     256.0
     260.0
     264.0
     268.0
     272.0
     276.0
     280.0
     284.0
     288.0
     292.0
     296.0
     300.0
     304.0
     308.0
     312.0
     316.0
     320.0
     324.0
     328.0
     332.0
     336.0
     340.0
     344.0
     348.0
     352.0
     356.0
# background positions, in 2 theta (left/right)
      25.7000       26.3999
      25.7000       26.3999
      25.7000       26.3999
      25.7000       26.3999
      25.7000       26.3999
      25.7000       26.3999
      25.7000       26.3999
      25.7000       26.3999
      25.7000       26.3999
      25.7000       26.3999
      25.7000       26.3999
      25.7000       26.3999
      25.7000       26.3999
      25.7000       26.3999
      25.7000       26.3999
      25.7000       26.3999
      25.7000       26.3999
      25.7000       26.3999
      25.7000       26.3999
      25.7000       26.3999
      25.7000       26.3999
      25.7000       26.3999
      25.7000       26.3999
      25.7000       26.3999
      25.7000       26.3999
      25.7000       26.3999
      25.7000       26.3999
      25.7000       26.3999
      25.7000       26.3999
      25.7000       26.3999
      25.7000       26.3999
      25.7000       26.3999
      25.7000       26.3999
      25.7000       26.3999
      25.7000       26.3999
      25.7000       26.3999
      25.7000       26.3999
      25.7000       26.3999
      25.7000       26.3999
      25.7000       26.3999
      25.7000       26.3999
      25.7000       26.3999
      25.7000       26.3999
      25.7000       26.3999
      25.7000       26.3999
      25.7000       26.3999
      25.7000       26.3999
      25.7000       26.3999
      25.7000       26.3999
      25.7000       26.3999
      25.7000       26.3999
      25.7000       26.3999
      25.7000       26.3999
      25.7000       26.3999
      25.7000       26.3999
      25.7000       26.3999
      25.7000       26.3999
      25.7000       26.3999
      25.7000       26.3999
      25.7000       26.3999
      25.7000       26.3999
      25.7000       26.3999
      25.7000       26.3999
      25.7000       26.3999
      25.7000       26.3999
      25.7000       26.3999
      25.7000       26.3999
      25.7000       26.3999
      25.7000       26.3999
      25.7000       26.3999
      25.7000       26.3999
      25.7000       26.3999
      25.7000       26.3999
      25.7000       26.3999
      25.7000       26.3999
      25.7000       26.3999
      25.7000       26.3999
      25.7000       26.3999
      25.7000       26.3999
      25.7000       26.3999
      25.7000       26.3999
      25.7000       26.3999
      25.7000       26.3999
      25.7000       26.3999
      25.7000       26.3999
      25.7000       26.3999
      25.7000       26.3999
      25.7000       26.3999
      25.7000       26.3999
      25.7000       26.3999
# background coefficients
       4.1814       -0.1499
       4.2308       -0.1993
       4.2938       -0.2206
       4.3684       -0.2138
       4.4526       -0.1794
       4.5441       -0.1185
       4.6407       -0.0326
       4.7401        0.0765
       4.8399        0.2062
       4.9381        0.3540
       5.0325        0.5169
       5.1211        0.6915
       5.2023        0.8745
       5.2743        1.0624
       5.3361        1.2516
       5.3865        1.4385
       5.4249        1.6196
       5.4508        1.7918
       5.4642        1.9518
       5.4654        2.0970
       5.4548        2.2248
       5.4334        2.3333
       5.4022        2.4206
       5.3625        2.4857
       5.3160        2.5278
       5.2645        2.5466
       5.2098        2.5424
       5.1539        2.5158
       5.0991        2.4681
       5.0472        2.4008
       5.0005        2.3160
       4.9609        2.2160
       4.9302        2.1034
       4.9103        1.9812
       4.9025        1.8525
       4.9082        1.7205
       4.9284        1.5886
       4.9638        1.4600
       5.0147        1.3379
       5.0814        1.2254
       5.1635        1.1254
       5.2605        1.0405
       5.3714        0.9730
       5.4952        0.9249
       5.6301        0.8976
       5.7746        0.8923
       5.9266        0.9095
       6.0838        0.9495
       6.2439        1.0119
       6.4045        1.0958
       6.5629        1.2001
       6.7165        1.3230
       6.8628        1.4623
       6.9993        1.6157
       7.1235        1.7802
       7.2334        1.9528
       7.3267        2.1303
       7.4017        2.3091
       7.4571        2.4857
       7.4914        2.6567
       7.5039        2.8186
       7.4941        2.9681
       7.4617        3.1019
       7.4071        3.2173
       7.3307        3.3116
       7.2335        3.3827
       7.1167        3.4287
       6.9820        3.4483
       6.8311        3.4407
       6.6663        3.4054
       6.4898        3.3425
       6.3042        3.2527
       6.1121        3.1372
       5.9163        2.9974
       5.7196        2.8356
       5.5247        2.6540
       5.3344        2.4556
       5.1512        2.2435
       4.9776        2.0211
       4.8159        1.7919
       4.6681        1.5598
       4.5359        1.3285
       4.4208        1.1018
       4.3240        0.8834
       4.2462        0.6768
       4.1880        0.4854
       4.1494        0.3121
       4.1301        0.1599
       4.1297        0.0309
       4.1472       -0.0728
# Peak positions (2 theta), intensity, half-width, weight Gauss/Lorentz (for pseudo-voigt),
# peak number        0
      26.0619        6.9909        0.0966        0.5000
      26.0644        7.0232        0.0966        0.5000
      26.0659        7.0148        0.0966        0.5000
      26.0664        6.9660        0.0966        0.5000
      26.0658        6.8776        0.0966        0.5000
      26.0642        6.7515        0.0966        0.5000
      26.0617        6.5900        0.0966        0.5000
      26.0582        6.3963        0.0966        0.5000
      26.0539        6.1741        0.0966        0.5000
      26.0488        5.9279        0.0966        0.5000
      26.0431        5.6623        0.0966        0.5000
      26.0369        5.3826        0.0966        0.5000
      26.0303        5.0942        0.0966        0.5000
      26.0234        4.8026        0.0966        0.5000
      26.0165        4.5137        0.0966        0.5000
      26.0096        4.2330        0.0966        0.5000
      26.0028        3.9659        0.0966        0.5000
      25.9965        3.7177        0.0966        0.5000
      25.9905        3.4932        0.0966        0.5000
      25.9852        3.2968        0.0966        0.5000
      25.9805        3.1323        0.0966        0.5000
      25.9767        3.0029        0.0966        0.5000
      25.9737        2.9110        0.0966        0.5000
      25.9717        2.8586        0.0966        0.5000
      25.9707        2.8466        0.0966        0.5000
      25.9706        2.8753        0.0966        0.5000
      25.9716        2.9440        0.0966        0.5000
      25.9737        3.0516        0.0966        0.5000
      25.9766        3.1957        0.0966        0.5000
      25.9806        3.3738        0.0966        0.5000
      25.9853        3.5822        0.0966        0.5000
      25.9909        3.8170        0.0966        0.5000
      25.9971        4.0735        0.0966        0.5000
      26.0038        4.3468        0.0966        0.5000
      26.0109        4.6316        0.0966        0.5000
      26.0184        4.9223        0.0966        0.5000
      26.0259        5.2132        0.0966        0.5000
      26.0335        5.4987        0.0966        0.5000
      26.0409        5.7733        0.0966        0.5000
      26.0479        6.0315        0.0966        0.5000
      26.0545        6.2685        0.0966        0.5000
      26.0606        6.4794        0.0966        0.5000
      26.0659        6.6603        0.0966        0.5000
      26.0704        6.8077        0.0966        0.5000
      26.0740        6.9186        0.0966        0.5000
      26.0766        6.9909        0.0966        0.5000
      26.0782        7.0232        0.0966        0.5000
      26.0787        7.0148        0.0966        0.5000
      26.0781        6.9660        0.0966        0.5000
      26.0764        6.8776        0.0966        0.5000
      26.0736        6.7515        0.0966        0.5000
      26.0698        6.5900        0.0966        0.5000
      26.0650        6.3963        0.0966        0.5000
      26.0594        6.1741        0.0966        0.5000
      26.0530        5.9279        0.0966        0.5000
      26.0459        5.6623        0.0966        0.5000
      26.0383        5.3826        0.0966        0.5000
      26.0303        5.0942        0.0966        0.5000
      26.0221        4.8026        0.0966        0.5000
      26.0138        4.5137        0.0966        0.5000
      26.0055        4.2330        0.0966        0.5000
      25.9975        3.9659        0.0966        0.5000
      25.9898        3.7177        0.0966        0.5000
      25.9826        3.4932        0.0966        0.5000
      25.9760        3.2968        0.0966        0.5000
      25.9702        3.1323        0.0966        0.5000
      25.9652        3.0029        0.0966        0.5000
      25.9611        2.9110        0.0966        0.5000
      25.9581        2.8586        0.0966        0.5000
      25.9561        2.8466        0.0966        0.5000
      25.9552        2.8753        0.0966        0.5000
      25.9554        2.9440        0.0966        0.5000
      25.9567        3.0516        0.0966        0.5000
      25.9590        3.1957        0.0966        0.5000
      25.9624        3.3738        0.0966        0.5000
      25.9667        3.5822        0.0966        0.5000
      25.9718        3.8170        0.0966        0.5000
      25.9777        4.0735        0.0966        0.5000
      25.9842        4.3468        0.0966        0.5000
      25.9913        4.6316        0.0966        0.5000
      25.9987        4.9223        0.0966        0.5000
      26.0063        5.2132        0.0966        0.5000
      26.0141        5.4987        0.0966        0.5000
      26.0217        5.7733        0.0966        0.5000
      26.0291        6.0315        0.0966        0.5000
      26.0362        6.2685        0.0966        0.5000
      26.0428        6.4794        0.0966        0.5000
      26.0488        6.6603        0.0966        0.5000
      26.0540        6.8077        0.0966        0.5000
      26.0584        6.9186        0.0966        0.5000
