# File version
1
# Peak profile (0: gauss, 1: pseudo-voigt, 2: lorentz)
       0
# Number of sub-patterns
       5
# Sub-patterns        0
# Number of peaks
       2
# Peak profile
       1
# Width factor
     15.00000
# Range in azimuth: nvalues, and values
        90
       0.0
       4.0
       8.0
      12.0
      16.0
      20.0
      24.0
      28.0
      32.0
      36.0
      40.0
      44.0
      48.0
      52.0
      56.0
      60.0
      64.0
      68.0
      72.0
      76.0
      80.0
      84.0
      88.0
      92.0
      96.0
     100.0
     104.0
     108.0
     112.0
     116.0
     120.0
     124.0
     128.0
     132.0
     136.0
     140.0
     144.0
     148.0
     152.0
     156.0
     160.0
     164.0
     168.0
     172.0
     176.0
     180.0
     184.0
     188.0
     192.0
     196.0
     200.0
     204.0
     208.0
     212.0
     216.0
     220.0
     224.0
     228.0
     232.0
     236.0
     240.0
     244.0
     248.0
     252.0
     256.0
     260.0
     264.0
     268.0
     272.0
     276.0
     280.0
     284.0
     288.0
     292.0
     296.0
     300.0
     304.0
     308.0
     312.0
     316.0
     320.0
     324.0
     328.0
     332.0
     336.0
     340.0
     344.0
     348.0
     352.0
     356.0
# background positions, in 2 theta (left/right)
      10.8000       11.6700
      10.8000       11.6700
      10.8000       11.6700
      10.8000       11.6700
      10.8000       11.6700
      10.8000       11.6700
      10.8000       11.6700
      10.8000       11.6700
      10.8000       11.6700
      10.8000       11.6700
      10.8000       11.6700
      10.8000       11.6700
      10.8000       11.6700
      10.8000       11.6700
      10.8000       11.6700
      10.8000       11.6700
      10.8000       11.6700
      10.8000       11.6700
      10.8000       11.6700
      10.8000       11.6700
      10.8000       11.6700
      10.8000       11.6700
      10.8000       11.6700
      10.8000       11.6700
      10.8000       11.6700
      10.8000       11.6700
      10.8000       11.6700
      10.8000       11.6700
      10.8000       11.6700
      10.8000       11.6700
      10.8000       11.6700
      10.8000       11.6700
      10.8000       11.6700
      10.8000       11.6700
      10.8000       11.6700
      10.8000       11.6700
      10.8000       11.6700
      10.8000       11.6700
      10.8000       11.6700
      10.8000       11.6700
      10.8000       11.6700
      10.8000       11.6700
      10.8000       11.6700
      10.8000       11.6700
      10.8000       11.6700
      10.8000       11.6700
      10.8000       11.6700
      10.8000       11.6700
      10.8000       11.6700
      10.8000       11.6700
      10.8000       11.6700
      10.8000       11.6700
      10.8000       11.6700
      10.8000       11.6700
      10.8000       11.6700
      10.8000       11.6700
      10.8000       11.6700
      10.8000       11.6700
      10.8000       11.6700
      10.8000       11.6700
      10.8000       11.6700
      10.8000       11.6700
      10.8000       11.6700
      10.8000       11.6700
      10.8000       11.6700
      10.8000       11.6700
      10.8000       11.6700
      10.8000       11.6700
      10.8000       11.6700
      10.8000       11.6700
      10.8000       11.6700
      10.8000       11.6700
      10.8000       11.6700
      10.8000       11.6700
      10.8000       11.6700
      10.8000       11.6700
      10.8000       11.6700
      10.8000       11.6700
      10.8000       11.6700
      10.8000       11.6700
      10.8000       11.6700
      10.8000       11.6700
      10.8000       11.6700
      10.8000       11.6700
      10.8000       11.6700
      10.8000       11.6700
      10.8000       11.6700
      10.8000       11.6700
      10.8000       11.6700
      10.8000       11.6700
# background coefficients
       4.2648        4.2640
       4.2648        4.2640
       4.2648        4.2640
       4.2648        4.2640
       4.2648        4.2640
       4.2648        4.2640
       4.2648        4.2640
       4.2648        4.2640
       4.2648        4.2640
       4.2648        4.2640
       4.2648        4.2640
       4.2648        4.2640
       4.2648        4.2640
       4.2648        4.2640
       4.2648        4.2640
       4.2648        4.2640
       4.2648        4.2640
       4.2648        4.2640
       4.2648        4.2640
       4.2648        4.2640
       4.2648        4.2640
       4.2648        4.2640
       4.2648        4.2640
       4.2648        4.2640
       4.2648        4.2640
       4.2648        4.2640
       4.2648        4.2640
       4.2648        4.2640
       4.2648        4.2640
       4.2648        4.2640
       4.2648        4.2640
       4.2648        4.2640
       4.2648        4.2640
       4.2648        4.2640
       4.2648        4.2640
       4.2648        4.2640
       4.2648        4.2640
       4.2648        4.2640
       4.2648        4.2640
       4.2648        4.2640
       4.2648        4.2640
       4.2648        4.2640
       4.2648        4.2640
       4.2648        4.2640
       4.2648        4.2640
       4.2648        4.2640
       4.2648        4.2640
       4.2648        4.2640
       4.2648        4.2640
       4.2648        4.2640
       4.2648        4.2640
       4.2648        4.2640
       4.2648        4.2640
       4.2648        4.2640
       4.2648        4.2640
       4.2648        4.2640
       4.2648        4.2640
       4.2648        4.2640
       4.2648        4.2640
       4.2648        4.2640
       4.2648        4.2640
       4.2648        4.2640
       4.2648        4.2640
       4.2648        4.2640
       4.2648        4.2640
       4.2648        4.2640
       4.2648        4.2640
       4.2648        4.2640
       4.2648        4.2640
       4.2648        4.2640
       4.2648        4.2640
       4.2648        4.2640
       4.2648        4.2640
       4.2648        4.2640
       4.2648        4.2640
       4.2648        4.2640
       4.2648        4.2640
       4.2648        4.2640
       4.2648        4.2640
       4.2648        4.2640
       4.2648        4.2640
       4.2648        4.2640
       4.2648        4.2640
       4.2648        4.2640
       4.2648        4.2640
       4.2648        4.2640
       4.2648        4.2640
       4.2648        4.2640
       4.2648        4.2640
       4.2648        4.2640
# Peak positions (2 theta), intensity, half-width, weight Gauss/Lorentz (for pseudo-voigt),
# peak number        0
      11.2027       44.2611        0.0364        0.1000
      11.2020       44.1851        0.0364        0.1000
      11.2012       44.1938        0.0364        0.1000
      11.2003       44.2873        0.0364        0.1000
      11.1992       44.4635        0.0364        0.1000
      11.1980       44.7192        0.0364        0.1000
      11.1967       45.0492        0.0364        0.1000
      11.1954       45.4473        0.0364        0.1000
      11.1940       45.9057        0.0364        0.1000
      11.1926       46.4153        0.0364        0.1000
      11.1912       46.9664        0.0364        0.1000
      11.1899       47.5481        0.0364        0.1000
      11.1887       48.1493        0.0364        0.1000
      11.1875       48.7581        0.0364        0.1000
      11.1865       49.3627        0.0364        0.1000
      11.1856       49.9513        0.0364        0.1000
      11.1848       50.5125        0.0364        0.1000
      11.1843       51.0354        0.0364        0.1000
      11.1839       51.5098        0.0364        0.1000
      11.1837       51.9264        0.0364        0.1000
      11.1837       52.2772        0.0364        0.1000
      11.1840       52.5553        0.0364        0.1000
      11.1844       52.7553        0.0364        0.1000
      11.1850       52.8733        0.0364        0.1000
      11.1858       52.9070        0.0364        0.1000
      11.1867       52.8558        0.0364        0.1000
      11.1877       52.7207        0.0364        0.1000
      11.1889       52.5042        0.0364        0.1000
      11.1902       52.2106        0.0364        0.1000
      11.1915       51.8456        0.0364        0.1000
      11.1928       51.4164        0.0364        0.1000
      11.1942       50.9312        0.0364        0.1000
      11.1955       50.3996        0.0364        0.1000
      11.1968       49.8318        0.0364        0.1000
      11.1980       49.2389        0.0364        0.1000
      11.1991       48.6324        0.0364        0.1000
      11.2000       48.0243        0.0364        0.1000
      11.2009       47.4262        0.0364        0.1000
      11.2015       46.8498        0.0364        0.1000
      11.2020       46.3065        0.0364        0.1000
      11.2024       45.8066        0.0364        0.1000
      11.2025       45.3600        0.0364        0.1000
      11.2025       44.9754        0.0364        0.1000
      11.2023       44.6602        0.0364        0.1000
      11.2019       44.4205        0.0364        0.1000
      11.2013       44.2611        0.0364        0.1000
      11.2006       44.1851        0.0364        0.1000
      11.1998       44.1938        0.0364        0.1000
      11.1988       44.2873        0.0364        0.1000
      11.1978       44.4635        0.0364        0.1000
      11.1966       44.7192        0.0364        0.1000
      11.1954       45.0492        0.0364        0.1000
      11.1942       45.4473        0.0364        0.1000
      11.1930       45.9057        0.0364        0.1000
      11.1918       46.4153        0.0364        0.1000
      11.1906       46.9664        0.0364        0.1000
      11.1895       47.5481        0.0364        0.1000
      11.1885       48.1493        0.0364        0.1000
      11.1875       48.7581        0.0364        0.1000
      11.1867       49.3627        0.0364        0.1000
      11.1861       49.9513        0.0364        0.1000
      11.1855       50.5125        0.0364        0.1000
      11.1851       51.0354        0.0364        0.1000
      11.1849       51.5098        0.0364        0.1000
      11.1848       51.9264        0.0364        0.1000
      11.1849       52.2772        0.0364        0.1000
      11.1852       52.5553        0.0364        0.1000
      11.1856       52.7553        0.0364        0.1000
      11.1862       52.8733        0.0364        0.1000
      11.1869       52.9070        0.0364        0.1000
      11.1878       52.8558        0.0364        0.1000
      11.1887       52.7207        0.0364        0.1000
      11.1898       52.5042        0.0364        0.1000
      11.1910       52.2106        0.0364        0.1000
      11.1922       51.8456        0.0364        0.1000
      11.1934       51.4164        0.0364        0.1000
      11.1947       50.9312        0.0364        0.1000
      11.1959       50.3996        0.0364        0.1000
      11.1972       49.8318        0.0364        0.1000
      11.1983       49.2389        0.0364        0.1000
      11.1994       48.6324        0.0364        0.1000
      11.2004       48.0243        0.0364        0.1000
      11.2013       47.4262        0.0364        0.1000
      11.2021       46.8498        0.0364        0.1000
      11.2027       46.3065        0.0364        0.1000
      11.2031       45.8066        0.0364        0.1000
      11.2034       45.3600        0.0364        0.1000
      11.2035       44.9754        0.0364        0.1000
      11.2034       44.6602        0.0364        0.1000
      11.2031       44.4205        0.0364        0.1000
# peak number        1
      11.5597      765.9822        0.0345        0.7095
      11.5605      646.8854        0.0345        0.7095
      11.5610      356.5961        0.0345        0.7095
      11.5613      160.4587        0.0345        0.7095
      11.5613       87.2634        0.0345        0.7095
      11.5611       50.8772        0.0345        0.7095
      11.5607       29.4545        0.0345        0.7095
      11.5600       22.7620        0.0345        0.7095
      11.5590       24.3515        0.0345        0.7095
      11.5578       23.1658        0.0345        0.7095
      11.5564       27.4997        0.0345        0.7095
      11.5547       55.8320        0.0345        0.7095
      11.5529       93.8840        0.0345        0.7095
      11.5510      136.2612        0.0345        0.7095
      11.5490      184.7490        0.0345        0.7095
      11.5470      201.8523        0.0345        0.7095
      11.5449      167.9572        0.0345        0.7095
      11.5429      107.6301        0.0345        0.7095
      11.5410       56.8894        0.0345        0.7095
      11.5393       45.1698        0.0345        0.7095
      11.5378       57.7641        0.0345        0.7095
      11.5365       67.1640        0.0345        0.7095
      11.5355       75.0969        0.0345        0.7095
      11.5348       71.9901        0.0345        0.7095
      11.5344       58.9528        0.0345        0.7095
      11.5344       61.0933        0.0345        0.7095
      11.5348       72.0996        0.0345        0.7095
      11.5356       88.6543        0.0345        0.7095
      11.5367      130.6022        0.0345        0.7095
      11.5383      185.9627        0.0345        0.7095
      11.5401      212.6978        0.0345        0.7095
      11.5422      174.5185        0.0345        0.7095
      11.5446       94.6263        0.0345        0.7095
      11.5472       43.6839        0.0345        0.7095
      11.5500       29.2975        0.0345        0.7095
      11.5528       18.6475        0.0345        0.7095
      11.5557       15.4773        0.0345        0.7095
      11.5586       18.1749        0.0345        0.7095
      11.5614       21.7119        0.0345        0.7095
      11.5640       31.3500        0.0345        0.7095
      11.5664       45.0866        0.0345        0.7095
      11.5686       88.5924        0.0345        0.7095
      11.5705      184.8586        0.0345        0.7095
      11.5721      349.4638        0.0345        0.7095
      11.5733      596.2316        0.0345        0.7095
      11.5741      765.9822        0.0345        0.7095
      11.5745      646.8854        0.0345        0.7095
      11.5745      356.5961        0.0345        0.7095
      11.5741      160.4587        0.0345        0.7095
      11.5734       87.2634        0.0345        0.7095
      11.5723       50.8772        0.0345        0.7095
      11.5709       29.4545        0.0345        0.7095
      11.5692       22.7620        0.0345        0.7095
      11.5672       24.3515        0.0345        0.7095
      11.5651       23.1658        0.0345        0.7095
      11.5628       27.4997        0.0345        0.7095
      11.5604       55.8320        0.0345        0.7095
      11.5579       93.8840        0.0345        0.7095
      11.5554      136.2612        0.0345        0.7095
      11.5530      184.7490        0.0345        0.7095
      11.5506      201.8523        0.0345        0.7095
      11.5484      167.9572        0.0345        0.7095
      11.5463      107.6301        0.0345        0.7095
      11.5444       56.8894        0.0345        0.7095
      11.5427       45.1698        0.0345        0.7095
      11.5412       57.7641        0.0345        0.7095
      11.5400       67.1640        0.0345        0.7095
      11.5390       75.0969        0.0345        0.7095
      11.5382       71.9901        0.0345        0.7095
      11.5377       58.9528        0.0345        0.7095
      11.5375       61.0933        0.0345        0.7095
      11.5375       72.0996        0.0345        0.7095
      11.5377       88.6543        0.0345        0.7095
      11.5381      130.6022        0.0345        0.7095
      11.5388      185.9627        0.0345        0.7095
      11.5396      212.6978        0.0345        0.7095
      11.5406      174.5185        0.0345        0.7095
      11.5418       94.6263        0.0345        0.7095
      11.5430       43.6839        0.0345        0.7095
      11.5444       29.2975        0.0345        0.7095
      11.5459       18.6475        0.0345        0.7095
      11.5474       15.4773        0.0345        0.7095
      11.5490       18.1749        0.0345        0.7095
      11.5506       21.7119        0.0345        0.7095
      11.5521       31.3500        0.0345        0.7095
      11.5537       45.0866        0.0345        0.7095
      11.5551       88.5924        0.0345        0.7095
      11.5565      184.8586        0.0345        0.7095
      11.5577      349.4638        0.0345        0.7095
      11.5588      596.2316        0.0345        0.7095
# Sub-patterns        1
# Number of peaks
       1
# Peak profile
       1
# Width factor
     15.00000
# Range in azimuth: nvalues, and values
        90
       0.0
       4.0
       8.0
      12.0
      16.0
      20.0
      24.0
      28.0
      32.0
      36.0
      40.0
      44.0
      48.0
      52.0
      56.0
      60.0
      64.0
      68.0
      72.0
      76.0
      80.0
      84.0
      88.0
      92.0
      96.0
     100.0
     104.0
     108.0
     112.0
     116.0
     120.0
     124.0
     128.0
     132.0
     136.0
     140.0
     144.0
     148.0
     152.0
     156.0
     160.0
     164.0
     168.0
     172.0
     176.0
     180.0
     184.0
     188.0
     192.0
     196.0
     200.0
     204.0
     208.0
     212.0
     216.0
     220.0
     224.0
     228.0
     232.0
     236.0
     240.0
     244.0
     248.0
     252.0
     256.0
     260.0
     264.0
     268.0
     272.0
     276.0
     280.0
     284.0
     288.0
     292.0
     296.0
     300.0
     304.0
     308.0
     312.0
     316.0
     320.0
     324.0
     328.0
     332.0
     336.0
     340.0
     344.0
     348.0
     352.0
     356.0
# background positions, in 2 theta (left/right)
      16.1000       16.6000
      16.1000       16.6000
      16.1000       16.6000
      16.1000       16.6000
      16.1000       16.6000
      16.1000       16.6000
      16.1000       16.6000
      16.1000       16.6000
      16.1000       16.6000
      16.1000       16.6000
      16.1000       16.6000
      16.1000       16.6000
      16.1000       16.6000
      16.1000       16.6000
      16.1000       16.6000
      16.1000       16.6000
      16.1000       16.6000
      16.1000       16.6000
      16.1000       16.6000
      16.1000       16.6000
      16.1000       16.6000
      16.1000       16.6000
      16.1000       16.6000
      16.1000       16.6000
      16.1000       16.6000
      16.1000       16.6000
      16.1000       16.6000
      16.1000       16.6000
      16.1000       16.6000
      16.1000       16.6000
      16.1000       16.6000
      16.1000       16.6000
      16.1000       16.6000
      16.1000       16.6000
      16.1000       16.6000
      16.1000       16.6000
      16.1000       16.6000
      16.1000       16.6000
      16.1000       16.6000
      16.1000       16.6000
      16.1000       16.6000
      16.1000       16.6000
      16.1000       16.6000
      16.1000       16.6000
      16.1000       16.6000
      16.1000       16.6000
      16.1000       16.6000
      16.1000       16.6000
      16.1000       16.6000
      16.1000       16.6000
      16.1000       16.6000
      16.1000       16.6000
      16.1000       16.6000
      16.1000       16.6000
      16.1000       16.6000
      16.1000       16.6000
      16.1000       16.6000
      16.1000       16.6000
      16.1000       16.6000
      16.1000       16.6000
      16.1000       16.6000
      16.1000       16.6000
      16.1000       16.6000
      16.1000       16.6000
      16.1000       16.6000
      16.1000       16.6000
      16.1000       16.6000
      16.1000       16.6000
      16.1000       16.6000
      16.1000       16.6000
      16.1000       16.6000
      16.1000       16.6000
      16.1000       16.6000
      16.1000       16.6000
      16.1000       16.6000
      16.1000       16.6000
      16.1000       16.6000
      16.1000       16.6000
      16.1000       16.6000
      16.1000       16.6000
      16.1000       16.6000
      16.1000       16.6000
      16.1000       16.6000
      16.1000       16.6000
      16.1000       16.6000
      16.1000       16.6000
      16.1000       16.6000
      16.1000       16.6000
      16.1000       16.6000
      16.1000       16.6000
# background coefficients
       5.1772        0.1543
       5.1772        0.1543
       5.1772        0.1543
       5.1772        0.1543
       5.1772        0.1543
       5.1772        0.1543
       5.1772        0.1543
       5.1772        0.1543
       5.1772        0.1543
       5.1772        0.1543
       5.1772        0.1543
       5.1772        0.1543
       5.1772        0.1543
       5.1772        0.1543
       5.1772        0.1543
       5.1772        0.1543
       5.1772        0.1543
       5.1772        0.1543
       5.1772        0.1543
       5.1772        0.1543
       5.1772        0.1543
       5.1772        0.1543
       5.1772        0.1543
       5.1772        0.1543
       5.1772        0.1543
       5.1772        0.1543
       5.1772        0.1543
       5.1772        0.1543
       5.1772        0.1543
       5.1772        0.1543
       5.1772        0.1543
       5.1772        0.1543
       5.1772        0.1543
       5.1772        0.1543
       5.1772        0.1543
       5.1772        0.1543
       5.1772        0.1543
       5.1772        0.1543
       5.1772        0.1543
       5.1772        0.1543
       5.1772        0.1543
       5.1772        0.1543
       5.1772        0.1543
       5.1772        0.1543
       5.1772        0.1543
       5.1772        0.1543
       5.1772        0.1543
       5.1772        0.1543
       5.1772        0.1543
       5.1772        0.1543
       5.1772        0.1543
       5.1772        0.1543
       5.1772        0.1543
       5.1772        0.1543
       5.1772        0.1543
       5.1772        0.1543
       5.1772        0.1543
       5.1772        0.1543
       5.1772        0.1543
       5.1772        0.1543
       5.1772        0.1543
       5.1772        0.1543
       5.1772        0.1543
       5.1772        0.1543
       5.1772        0.1543
       5.1772        0.1543
       5.1772        0.1543
       5.1772        0.1543
       5.1772        0.1543
       5.1772        0.1543
       5.1772        0.1543
       5.1772        0.1543
       5.1772        0.1543
       5.1772        0.1543
       5.1772        0.1543
       5.1772        0.1543
       5.1772        0.1543
       5.1772        0.1543
       5.1772        0.1543
       5.1772        0.1543
       5.1772        0.1543
       5.1772        0.1543
       5.1772        0.1543
       5.1772        0.1543
       5.1772        0.1543
       5.1772        0.1543
       5.1772        0.1543
       5.1772        0.1543
       5.1772        0.1543
       5.1772        0.1543
# Peak positions (2 theta), intensity, half-width, weight Gauss/Lorentz (for pseudo-voigt),
# peak number        0
      16.3828        2.4369        0.0571        0.6148
      16.3850        2.7132        0.0571        0.6148
      16.3867        2.6818        0.0571        0.6148
      16.3878        2.8531        0.0571        0.6148
      16.3883        3.4882        0.0571        0.6148
      16.3881        4.4243        0.0571        0.6148
      16.3873        5.5973        0.0571        0.6148
      16.3858        7.4086        0.0571        0.6148
      16.3837       10.2389        0.0571        0.6148
      16.3809       13.5732        0.0571        0.6148
      16.3777       15.9072        0.0571        0.6148
      16.3740       15.8605        0.0571        0.6148
      16.3700       13.4751        0.0571        0.6148
      16.3657       10.2574        0.0571        0.6148
      16.3613        7.7836        0.0571        0.6148
      16.3569        6.3187        0.0571        0.6148
      16.3525        4.9976        0.0571        0.6148
      16.3484        3.4107        0.0571        0.6148
      16.3446        2.7389        0.0571        0.6148
      16.3411        4.8935        0.0571        0.6148
      16.3382       10.2747        0.0571        0.6148
      16.3358       16.5027        0.0571        0.6148
      16.3341       19.7688        0.0571        0.6148
      16.3330       17.8523        0.0571        0.6148
      16.3326       12.0170        0.0571        0.6148
      16.3329        5.9425        0.0571        0.6148
      16.3338        2.6947        0.0571        0.6148
      16.3353        2.6011        0.0571        0.6148
      16.3374        3.8704        0.0571        0.6148
      16.3401        4.9831        0.0571        0.6148
      16.3431        6.2214        0.0571        0.6148
      16.3465        8.8471        0.0571        0.6148
      16.3502       13.0544        0.0571        0.6148
      16.3540       17.0967        0.0571        0.6148
      16.3578       18.6245        0.0571        0.6148
      16.3617       16.8443        0.0571        0.6148
      16.3654       13.2348        0.0571        0.6148
      16.3690       10.1156        0.0571        0.6148
      16.3723        8.5903        0.0571        0.6148
      16.3753        7.9160        0.0571        0.6148
      16.3779        6.7302        0.0571        0.6148
      16.3801        4.6521        0.0571        0.6148
      16.3820        2.5839        0.0571        0.6148
      16.3834        1.6021        0.0571        0.6148
      16.3844        1.8211        0.0571        0.6148
      16.3850        2.4369        0.0571        0.6148
      16.3853        2.7132        0.0571        0.6148
      16.3851        2.6818        0.0571        0.6148
      16.3847        2.8531        0.0571        0.6148
      16.3839        3.4882        0.0571        0.6148
      16.3830        4.4243        0.0571        0.6148
      16.3817        5.5973        0.0571        0.6148
      16.3803        7.4086        0.0571        0.6148
      16.3788       10.2389        0.0571        0.6148
      16.3771       13.5732        0.0571        0.6148
      16.3753       15.9072        0.0571        0.6148
      16.3734       15.8605        0.0571        0.6148
      16.3715       13.4751        0.0571        0.6148
      16.3695       10.2574        0.0571        0.6148
      16.3675        7.7836        0.0571        0.6148
      16.3654        6.3187        0.0571        0.6148
      16.3633        4.9976        0.0571        0.6148
      16.3612        3.4107        0.0571        0.6148
      16.3591        2.7389        0.0571        0.6148
      16.3571        4.8935        0.0571        0.6148
      16.3550       10.2747        0.0571        0.6148
      16.3531       16.5027        0.0571        0.6148
      16.3512       19.7688        0.0571        0.6148
      16.3495       17.8523        0.0571        0.6148
      16.3479       12.0170        0.0571        0.6148
      16.3466        5.9425        0.0571        0.6148
      16.3455        2.6947        0.0571        0.6148
      16.3446        2.6011        0.0571        0.6148
      16.3441        3.8704        0.0571        0.6148
      16.3440        4.9831        0.0571        0.6148
      16.3442        6.2214        0.0571        0.6148
      16.3448        8.8471        0.0571        0.6148
      16.3459       13.0544        0.0571        0.6148
      16.3473       17.0967        0.0571        0.6148
      16.3492       18.6245        0.0571        0.6148
      16.3515       16.8443        0.0571        0.6148
      16.3541       13.2348        0.0571        0.6148
      16.3571       10.1156        0.0571        0.6148
      16.3603        8.5903        0.0571        0.6148
      16.3636        7.9160        0.0571        0.6148
      16.3671        6.7302        0.0571        0.6148
      16.3706        4.6521        0.0571        0.6148
      16.3740        2.5839        0.0571        0.6148
      16.3772        1.6021        0.0571        0.6148
      16.3802        1.8211        0.0571        0.6148
# Sub-patterns        2
# Number of peaks
       1
# Peak profile
       1
# Width factor
     15.00000
# Range in azimuth: nvalues, and values
        90
       0.0
       4.0
       8.0
      12.0
      16.0
      20.0
      24.0
      28.0
      32.0
      36.0
      40.0
      44.0
      48.0
      52.0
      56.0
      60.0
      64.0
      68.0
      72.0
      76.0
      80.0
      84.0
      88.0
      92.0
      96.0
     100.0
     104.0
     108.0
     112.0
     116.0
     120.0
     124.0
     128.0
     132.0
     136.0
     140.0
     144.0
     148.0
     152.0
     156.0
     160.0
     164.0
     168.0
     172.0
     176.0
     180.0
     184.0
     188.0
     192.0
     196.0
     200.0
     204.0
     208.0
     212.0
     216.0
     220.0
     224.0
     228.0
     232.0
     236.0
     240.0
     244.0
     248.0
     252.0
     256.0
     260.0
     264.0
     268.0
     272.0
     276.0
     280.0
     284.0
     288.0
     292.0
     296.0
     300.0
     304.0
     308.0
     312.0
     316.0
     320.0
     324.0
     328.0
     332.0
     336.0
     340.0
     344.0
     348.0
     352.0
     356.0
# background positions, in 2 theta (left/right)
      19.8000       20.2700
      19.8000       20.2700
      19.8000       20.2700
      19.8000       20.2700
      19.8000       20.2700
      19.8000       20.2700
      19.8000       20.2700
      19.8000       20.2700
      19.8000       20.2700
      19.8000       20.2700
      19.8000       20.2700
      19.8000       20.2700
      19.8000       20.2700
      19.8000       20.2700
      19.8000       20.2700
      19.8000       20.2700
      19.8000       20.2700
      19.8000       20.2700
      19.8000       20.2700
      19.8000       20.2700
      19.8000       20.2700
      19.8000       20.2700
      19.8000       20.2700
      19.8000       20.2700
      19.8000       20.2700
      19.8000       20.2700
      19.8000       20.2700
      19.8000       20.2700
      19.8000       20.2700
      19.8000       20.2700
      19.8000       20.2700
      19.8000       20.2700
      19.8000       20.2700
      19.8000       20.2700
      19.8000       20.2700
      19.8000       20.2700
      19.8000       20.2700
      19.8000       20.2700
      19.8000       20.2700
      19.8000       20.2700
      19.8000       20.2700
      19.8000       20.2700
      19.8000       20.2700
      19.8000       20.2700
      19.8000       20.2700
      19.8000       20.2700
      19.8000       20.2700
      19.8000       20.2700
      19.8000       20.2700
      19.8000       20.2700
      19.8000       20.2700
      19.8000       20.2700
      19.8000       20.2700
      19.8000       20.2700
      19.8000       20.2700
      19.8000       20.2700
      19.8000       20.2700
      19.8000       20.2700
      19.8000       20.2700
      19.8000       20.2700
      19.8000       20.2700
      19.8000       20.2700
      19.8000       20.2700
      19.8000       20.2700
      19.8000       20.2700
      19.8000       20.2700
      19.8000       20.2700
      19.8000       20.2700
      19.8000       20.2700
      19.8000       20.2700
      19.8000       20.2700
      19.8000       20.2700
      19.8000       20.2700
      19.8000       20.2700
      19.8000       20.2700
      19.8000       20.2700
      19.8000       20.2700
      19.8000       20.2700
      19.8000       20.2700
      19.8000       20.2700
      19.8000       20.2700
      19.8000       20.2700
      19.8000       20.2700
      19.8000       20.2700
      19.8000       20.2700
      19.8000       20.2700
      19.8000       20.2700
      19.8000       20.2700
      19.8000       20.2700
      19.8000       20.2700
# background coefficients
       5.0514        0.9166
       5.0514        0.9166
       5.0514        0.9166
       5.0514        0.9166
       5.0514        0.9166
       5.0514        0.9166
       5.0514        0.9166
       5.0514        0.9166
       5.0514        0.9166
       5.0514        0.9166
       5.0514        0.9166
       5.0514        0.9166
       5.0514        0.9166
       5.0514        0.9166
       5.0514        0.9166
       5.0514        0.9166
       5.0514        0.9166
       5.0514        0.9166
       5.0514        0.9166
       5.0514        0.9166
       5.0514        0.9166
       5.0514        0.9166
       5.0514        0.9166
       5.0514        0.9166
       5.0514        0.9166
       5.0514        0.9166
       5.0514        0.9166
       5.0514        0.9166
       5.0514        0.9166
       5.0514        0.9166
       5.0514        0.9166
       5.0514        0.9166
       5.0514        0.9166
       5.0514        0.9166
       5.0514        0.9166
       5.0514        0.9166
       5.0514        0.9166
       5.0514        0.9166
       5.0514        0.9166
       5.0514        0.9166
       5.0514        0.9166
       5.0514        0.9166
       5.0514        0.9166
       5.0514        0.9166
       5.0514        0.9166
       5.0514        0.9166
       5.0514        0.9166
       5.0514        0.9166
       5.0514        0.9166
       5.0514        0.9166
       5.0514        0.9166
       5.0514        0.9166
       5.0514        0.9166
       5.0514        0.9166
       5.0514        0.9166
       5.0514        0.9166
       5.0514        0.9166
       5.0514        0.9166
       5.0514        0.9166
       5.0514        0.9166
       5.0514        0.9166
       5.0514        0.9166
       5.0514        0.9166
       5.0514        0.9166
       5.0514        0.9166
       5.0514        0.9166
       5.0514        0.9166
       5.0514        0.9166
       5.0514        0.9166
       5.0514        0.9166
       5.0514        0.9166
       5.0514        0.9166
       5.0514        0.9166
       5.0514        0.9166
       5.0514        0.9166
       5.0514        0.9166
       5.0514        0.9166
       5.0514        0.9166
       5.0514        0.9166
       5.0514        0.9166
       5.0514        0.9166
       5.0514        0.9166
       5.0514        0.9166
       5.0514        0.9166
       5.0514        0.9166
       5.0514        0.9166
       5.0514        0.9166
       5.0514        0.9166
       5.0514        0.9166
       5.0514        0.9166
# Peak positions (2 theta), intensity, half-width, weight Gauss/Lorentz (for pseudo-voigt),
# peak number        0
      20.0964        3.7818        0.0540        0.7500
      20.0983        2.6013        0.0540        0.7824
      20.0995        1.7439        0.0540        0.8092
      20.1001        4.8412        0.0540        0.8301
      20.1000       12.9211        0.0540        0.8445
      20.0993       22.9644        0.0540        0.8522
      20.0978       29.9456        0.0540        0.8531
      20.0957       30.5654        0.0540        0.8471
      20.0930       25.5552        0.0540        0.8343
      20.0897       18.8264        0.0540        0.8150
      20.0860       14.4287        0.0540        0.7896
      20.0819       13.8844        0.0540        0.7586
      20.0775       15.8102        0.0540        0.7225
      20.0729       17.6773        0.0540        0.6821
      20.0682       17.9701        0.0540        0.6381
      20.0635       17.0601        0.0540        0.5915
      20.0590       16.4378        0.0540        0.5431
      20.0548       17.2615        0.0540        0.4938
      20.0509       19.4720        0.0540        0.4447
      20.0474       22.0199        0.0540        0.3966
      20.0445       23.7901        0.0540        0.3506
      20.0421       24.3711        0.0540        0.3074
      20.0403       24.0998        0.0540        0.2680
      20.0393       23.4948        0.0540        0.2332
      20.0389       22.6953        0.0540        0.2035
      20.0392       21.4613        0.0540        0.1796
      20.0401       19.7207        0.0540        0.1619
      20.0418       18.0483        0.0540        0.1508
      20.0440       17.4210        0.0540        0.1465
      20.0467       18.2724        0.0540        0.1491
      20.0499       19.7112        0.0540        0.1585
      20.0535       19.9068        0.0540        0.1746
      20.0575       17.6934        0.0540        0.1969
      20.0616       14.1234        0.0540        0.2252
      20.0660       12.3197        0.0540        0.2589
      20.0703       15.2065        0.0540        0.2972
      20.0746       22.7002        0.0540        0.3395
      20.0789       30.8571        0.0540        0.3849
      20.0829       34.1777        0.0540        0.4325
      20.0867       29.5917        0.0540        0.4815
      20.0901       18.9442        0.0540        0.5308
      20.0932        7.7803        0.0540        0.5795
      20.0959        1.2688        0.0540        0.6267
      20.0981        0.5858        0.0540        0.6714
      20.0999        2.7318        0.0540        0.7128
      20.1012        3.7818        0.0540        0.7500
      20.1019        2.6013        0.0540        0.7824
      20.1023        1.7439        0.0540        0.8092
      20.1021        4.8412        0.0540        0.8301
      20.1015       12.9211        0.0540        0.8445
      20.1004       22.9644        0.0540        0.8522
      20.0989       29.9456        0.0540        0.8531
      20.0971       30.5654        0.0540        0.8471
      20.0949       25.5552        0.0540        0.8343
      20.0924       18.8264        0.0540        0.8150
      20.0896       14.4287        0.0540        0.7896
      20.0866       13.8844        0.0540        0.7586
      20.0834       15.8102        0.0540        0.7225
      20.0801       17.6773        0.0540        0.6821
      20.0766       17.9701        0.0540        0.6381
      20.0731       17.0601        0.0540        0.5915
      20.0696       16.4378        0.0540        0.5431
      20.0662       17.2615        0.0540        0.4938
      20.0629       19.4720        0.0540        0.4447
      20.0597       22.0199        0.0540        0.3966
      20.0567       23.7901        0.0540        0.3506
      20.0539       24.3711        0.0540        0.3074
      20.0515       24.0998        0.0540        0.2680
      20.0494       23.4948        0.0540        0.2332
      20.0476       22.6953        0.0540        0.2035
      20.0463       21.4613        0.0540        0.1796
      20.0455       19.7207        0.0540        0.1619
      20.0452       18.0483        0.0540        0.1508
      20.0453       17.4210        0.0540        0.1465
      20.0460       18.2724        0.0540        0.1491
      20.0472       19.7112        0.0540        0.1585
      20.0489       19.9068        0.0540        0.1746
      20.0511       17.6934        0.0540        0.1969
      20.0538       14.1234        0.0540        0.2252
      20.0568       12.3197        0.0540        0.2589
      20.0603       15.2065        0.0540        0.2972
      20.0640       22.7002        0.0540        0.3395
      20.0679       30.8571        0.0540        0.3849
      20.0720       34.1777        0.0540        0.4325
      20.0761       29.5917        0.0540        0.4815
      20.0801       18.9442        0.0540        0.5308
      20.0840        7.7803        0.0540        0.5795
      20.0877        1.2688        0.0540        0.6267
      20.0910        0.5858        0.0540        0.6714
      20.0940        2.7318        0.0540        0.7128
# Sub-patterns        3
# Number of peaks
       1
# Peak profile
       1
# Width factor
     15.00000
# Range in azimuth: nvalues, and values
        90
       0.0
       4.0
       8.0
      12.0
      16.0
      20.0
      24.0
      28.0
      32.0
      36.0
      40.0
      44.0
      48.0
      52.0
      56.0
      60.0
      64.0
      68.0
      72.0
      76.0
      80.0
      84.0
      88.0
      92.0
      96.0
     100.0
     104.0
     108.0
     112.0
     116.0
     120.0
     124.0
     128.0
     132.0
     136.0
     140.0
     144.0
     148.0
     152.0
     156.0
     160.0
     164.0
     168.0
     172.0
     176.0
     180.0
     184.0
     188.0
     192.0
     196.0
     200.0
     204.0
     208.0
     212.0
     216.0
     220.0
     224.0
     228.0
     232.0
     236.0
     240.0
     244.0
     248.0
     252.0
     256.0
     260.0
     264.0
     268.0
     272.0
     276.0
     280.0
     284.0
     288.0
     292.0
     296.0
     300.0
     304.0
     308.0
     312.0
     316.0
     320.0
     324.0
     328.0
     332.0
     336.0
     340.0
     344.0
     348.0
     352.0
     356.0
# background positions, in 2 theta (left/right)
      23.1001       23.5000
      23.1001       23.5000
      23.1001       23.5000
      23.1001       23.5000
      23.1001       23.5000
      23.1001       23.5000
      23.1001       23.5000
      23.1001       23.5000
      23.1001       23.5000
      23.1001       23.5000
      23.1001       23.5000
      23.1001       23.5000
      23.1001       23.5000
      23.1001       23.5000
      23.1001       23.5000
      23.1001       23.5000
      23.1001       23.5000
      23.1001       23.5000
      23.1001       23.5000
      23.1001       23.5000
      23.1001       23.5000
      23.1001       23.5000
      23.1001       23.5000
      23.1001       23.5000
      23.1001       23.5000
      23.1001       23.5000
      23.1001       23.5000
      23.1001       23.5000
      23.1001       23.5000
      23.1001       23.5000
      23.1001       23.5000
      23.1001       23.5000
      23.1001       23.5000
      23.1001       23.5000
      23.1001       23.5000
      23.1001       23.5000
      23.1001       23.5000
      23.1001       23.5000
      23.1001       23.5000
      23.1001       23.5000
      23.1001       23.5000
      23.1001       23.5000
      23.1001       23.5000
      23.1001       23.5000
      23.1001       23.5000
      23.1001       23.5000
      23.1001       23.5000
      23.1001       23.5000
      23.1001       23.5000
      23.1001       23.5000
      23.1001       23.5000
      23.1001       23.5000
      23.1001       23.5000
      23.1001       23.5000
      23.1001       23.5000
      23.1001       23.5000
      23.1001       23.5000
      23.1001       23.5000
      23.1001       23.5000
      23.1001       23.5000
      23.1001       23.5000
      23.1001       23.5000
      23.1001       23.5000
      23.1001       23.5000
      23.1001       23.5000
      23.1001       23.5000
      23.1001       23.5000
      23.1001       23.5000
      23.1001       23.5000
      23.1001       23.5000
      23.1001       23.5000
      23.1001       23.5000
      23.1001       23.5000
      23.1001       23.5000
      23.1001       23.5000
      23.1001       23.5000
      23.1001       23.5000
      23.1001       23.5000
      23.1001       23.5000
      23.1001       23.5000
      23.1001       23.5000
      23.1001       23.5000
      23.1001       23.5000
      23.1001       23.5000
      23.1001       23.5000
      23.1001       23.5000
      23.1001       23.5000
      23.1001       23.5000
      23.1001       23.5000
      23.1001       23.5000
# background coefficients
       6.2100       -4.4342
       6.1870       -4.3267
       6.1667       -4.1971
       6.1491       -4.0474
       6.1345       -3.8800
       6.1230       -3.6980
       6.1147       -3.5043
       6.1096       -3.3025
       6.1076       -3.0959
       6.1086       -2.8884
       6.1124       -2.6835
       6.1189       -2.4851
       6.1277       -2.2966
       6.1385       -2.1214
       6.1511       -1.9628
       6.1650       -1.8236
       6.1798       -1.7063
       6.1951       -1.6130
       6.2106       -1.5454
       6.2259       -1.5048
       6.2405       -1.4919
       6.2541       -1.5068
       6.2664       -1.5494
       6.2770       -1.6187
       6.2858       -1.7135
       6.2926       -1.8320
       6.2971       -1.9721
       6.2992       -2.1311
       6.2990       -2.3062
       6.2965       -2.4941
       6.2916       -2.6914
       6.2846       -2.8945
       6.2756       -3.0998
       6.2649       -3.3036
       6.2526       -3.5022
       6.2392       -3.6920
       6.2250       -3.8699
       6.2103       -4.0326
       6.1956       -4.1775
       6.1812       -4.3021
       6.1674       -4.4044
       6.1549       -4.4828
       6.1438       -4.5364
       6.1345       -4.5643
       6.1274       -4.5667
       6.1227       -4.5438
       6.1208       -4.4965
       6.1217       -4.4263
       6.1256       -4.3349
       6.1326       -4.2245
       6.1428       -4.0976
       6.1560       -3.9572
       6.1722       -3.8064
       6.1912       -3.6485
       6.2128       -3.4869
       6.2368       -3.3251
       6.2627       -3.1665
       6.2903       -3.0146
       6.3192       -2.8725
       6.3488       -2.7432
       6.3789       -2.6296
       6.4088       -2.5340
       6.4381       -2.4583
       6.4665       -2.4043
       6.4933       -2.3730
       6.5182       -2.3652
       6.5407       -2.3810
       6.5605       -2.4201
       6.5773       -2.4818
       6.5907       -2.5648
       6.6005       -2.6673
       6.6067       -2.7873
       6.6090       -2.9223
       6.6074       -3.0695
       6.6019       -3.2258
       6.5927       -3.3879
       6.5799       -3.5525
       6.5636       -3.7160
       6.5442       -3.8749
       6.5219       -4.0260
       6.4972       -4.1657
       6.4703       -4.2912
       6.4419       -4.3994
       6.4122       -4.4880
       6.3818       -4.5549
       6.3511       -4.5982
       6.3207       -4.6167
       6.2909       -4.6096
       6.2622       -4.5766
       6.2351       -4.5179
# Peak positions (2 theta), intensity, half-width, weight Gauss/Lorentz (for pseudo-voigt),
# peak number        0
      23.2512        7.7763        0.0581        0.4373
      23.2537        7.2771        0.0581        0.4373
      23.2555        5.9702        0.0581        0.4373
      23.2564        4.0935        0.0581        0.4373
      23.2566        2.2162        0.0581        0.4373
      23.2560        0.9881        0.0581        0.4373
      23.2546        0.6375        0.0581        0.4373
      23.2524        0.7537        0.0581        0.4373
      23.2496        0.6964        0.0581        0.4373
      23.2461        0.3164        0.0581        0.4373
      23.2420        0.2491        0.0581        0.4373
      23.2374        1.3843        0.0581        0.4373
      23.2324        3.9339        0.0581        0.4373
      23.2272        6.9856        0.0581        0.4373
      23.2217        9.0302        0.0581        0.4373
      23.2162        9.0496        0.0581        0.4373
      23.2108        7.2370        0.0581        0.4373
      23.2054        4.7771        0.0581        0.4373
      23.2004        2.9574        0.0581        0.4373
      23.1957        2.3872        0.0581        0.4373
      23.1915        2.8537        0.0581        0.4373
      23.1879        3.7108        0.0581        0.4373
      23.1849        4.3383        0.0581        0.4373
      23.1826        4.3834        0.0581        0.4373
      23.1810        3.8417        0.0581        0.4373
      23.1803        3.0985        0.0581        0.4373
      23.1803        2.8454        0.0581        0.4373
      23.1812        3.7025        0.0581        0.4373
      23.1829        5.6637        0.0581        0.4373
      23.1853        7.8394        0.0581        0.4373
      23.1885        8.8969        0.0581        0.4373
      23.1924        8.0008        0.0581        0.4373
      23.1969        5.4960        0.0581        0.4373
      23.2020        2.6874        0.0581        0.4373
      23.2075        0.8494        0.0581        0.4373
      23.2133        0.3168        0.0581        0.4373
      23.2194        0.4450        0.0581        0.4373
      23.2255        0.4028        0.0581        0.4373
      23.2317        0.0029        0.0581        0.4373
      23.2378       -0.1942        0.0581        0.4373
      23.2437        0.4915        0.0581        0.4373
      23.2492        2.1827        0.0581        0.4373
      23.2543        4.3461        0.0581        0.4373
      23.2588        6.2502        0.0581        0.4373
      23.2627        7.4343        0.0581        0.4373
      23.2659        7.7763        0.0581        0.4373
      23.2683        7.2771        0.0581        0.4373
      23.2699        5.9702        0.0581        0.4373
      23.2706        4.0935        0.0581        0.4373
      23.2705        2.2162        0.0581        0.4373
      23.2695        0.9881        0.0581        0.4373
      23.2677        0.6375        0.0581        0.4373
      23.2650        0.7537        0.0581        0.4373
      23.2616        0.6964        0.0581        0.4373
      23.2575        0.3164        0.0581        0.4373
      23.2527        0.2491        0.0581        0.4373
      23.2474        1.3843        0.0581        0.4373
      23.2416        3.9339        0.0581        0.4373
      23.2356        6.9856        0.0581        0.4373
      23.2293        9.0302        0.0581        0.4373
      23.2228        9.0496        0.0581        0.4373
      23.2164        7.2370        0.0581        0.4373
      23.2102        4.7771        0.0581        0.4373
      23.2042        2.9574        0.0581        0.4373
      23.1985        2.3872        0.0581        0.4373
      23.1933        2.8537        0.0581        0.4373
      23.1886        3.7108        0.0581        0.4373
      23.1846        4.3383        0.0581        0.4373
      23.1813        4.3834        0.0581        0.4373
      23.1787        3.8417        0.0581        0.4373
      23.1770        3.0985        0.0581        0.4373
      23.1760        2.8454        0.0581        0.4373
      23.1759        3.7025        0.0581        0.4373
      23.1767        5.6637        0.0581        0.4373
      23.1782        7.8394        0.0581        0.4373
      23.1805        8.8969        0.0581        0.4373
      23.1836        8.0008        0.0581        0.4373
      23.1873        5.4960        0.0581        0.4373
      23.1916        2.6874        0.0581        0.4373
      23.1964        0.8494        0.0581        0.4373
      23.2016        0.3168        0.0581        0.4373
      23.2071        0.4450        0.0581        0.4373
      23.2127        0.4028        0.0581        0.4373
      23.2185        0.0029        0.0581        0.4373
      23.2241       -0.1942        0.0581        0.4373
      23.2297        0.4915        0.0581        0.4373
      23.2349        2.1827        0.0581        0.4373
      23.2398        4.3461        0.0581        0.4373
      23.2442        6.2502        0.0581        0.4373
      23.2480        7.4343        0.0581        0.4373
# Sub-patterns        4
# Number of peaks
       1
# Peak profile
       1
# Width factor
     15.00000
# Range in azimuth: nvalues, and values
        90
       0.0
       4.0
       8.0
      12.0
      16.0
      20.0
      24.0
      28.0
      32.0
      36.0
      40.0
      44.0
      48.0
      52.0
      56.0
      60.0
      64.0
      68.0
      72.0
      76.0
      80.0
      84.0
      88.0
      92.0
      96.0
     100.0
     104.0
     108.0
     112.0
     116.0
     120.0
     124.0
     128.0
     132.0
     136.0
     140.0
     144.0
     148.0
     152.0
     156.0
     160.0
     164.0
     168.0
     172.0
     176.0
     180.0
     184.0
     188.0
     192.0
     196.0
     200.0
     204.0
     208.0
     212.0
     216.0
     220.0
     224.0
     228.0
     232.0
     236.0
     240.0
     244.0
     248.0
     252.0
     256.0
     260.0
     264.0
     268.0
     272.0
     276.0
     280.0
     284.0
     288.0
     292.0
     296.0
     300.0
     304.0
     308.0
     312.0
     316.0
     320.0
     324.0
     328.0
     332.0
     336.0
     340.0
     344.0
     348.0
     352.0
     356.0
# background positions, in 2 theta (left/right)
      25.7000       26.3999
      25.7000       26.3999
      25.7000       26.3999
      25.7000       26.3999
      25.7000       26.3999
      25.7000       26.3999
      25.7000       26.3999
      25.7000       26.3999
      25.7000       26.3999
      25.7000       26.3999
      25.7000       26.3999
      25.7000       26.3999
      25.7000       26.3999
      25.7000       26.3999
      25.7000       26.3999
      25.7000       26.3999
      25.7000       26.3999
      25.7000       26.3999
      25.7000       26.3999
      25.7000       26.3999
      25.7000       26.3999
      25.7000       26.3999
      25.7000       26.3999
      25.7000       26.3999
      25.7000       26.3999
      25.7000       26.3999
      25.7000       26.3999
      25.7000       26.3999
      25.7000       26.3999
      25.7000       26.3999
      25.7000       26.3999
      25.7000       26.3999
      25.7000       26.3999
      25.7000       26.3999
      25.7000       26.3999
      25.7000       26.3999
      25.7000       26.3999
      25.7000       26.3999
      25.7000       26.3999
      25.7000       26.3999
      25.7000       26.3999
      25.7000       26.3999
      25.7000       26.3999
      25.7000       26.3999
      25.7000       26.3999
      25.7000       26.3999
      25.7000       26.3999
      25.7000       26.3999
      25.7000       26.3999
      25.7000       26.3999
      25.7000       26.3999
      25.7000       26.3999
      25.7000       26.3999
      25.7000       26.3999
      25.7000       26.3999
      25.7000       26.3999
      25.7000       26.3999
      25.7000       26.3999
      25.7000       26.3999
      25.7000       26.3999
      25.7000       26.3999
      25.7000       26.3999
      25.7000       26.3999
      25.7000       26.3999
      25.7000       26.3999
      25.7000       26.3999
      25.7000       26.3999
      25.7000       26.3999
      25.7000       26.3999
      25.7000       26.3999
      25.7000       26.3999
      25.7000       26.3999
      25.7000       26.3999
      25.7000       26.3999
      25.7000       26.3999
      25.7000       26.3999
      25.7000       26.3999
      25.7000       26.3999
      25.7000       26.3999
      25.7000       26.3999
      25.7000       26.3999
      25.7000       26.3999
      25.7000       26.3999
      25.7000       26.3999
      25.7000       26.3999
      25.7000       26.3999
      25.7000       26.3999
      25.7000       26.3999
      25.7000       26.3999
      25.7000       26.3999
# background coefficients
       4.2264       -0.6015
       4.2750       -0.6452
       4.3338       -0.6457
       4.4011       -0.6037
       4.4748       -0.5203
       4.5531       -0.3975
       4.6338       -0.2381
       4.7152       -0.0455
       4.7951        0.1762
       4.8719        0.4225
       4.9438        0.6883
       5.0095        0.9683
       5.0676        1.2569
       5.1170        1.5483
       5.1570        1.8367
       5.1870        2.1166
       5.2067        2.3825
       5.2162        2.6293
       5.2157        2.8521
       5.2059        3.0469
       5.1874        3.2099
       5.1614        3.3383
       5.1290        3.4297
       5.0918        3.4826
       5.0512        3.4963
       5.0091        3.4708
       4.9671        3.4071
       4.9272        3.3067
       4.8910        3.1721
       4.8605        3.0063
       4.8373        2.8129
       4.8229        2.5963
       4.8188        2.3612
       4.8263        2.1127
       4.8463        1.8561
       4.8796        1.5970
       4.9267        1.3411
       4.9878        1.0938
       5.0630        0.8605
       5.1517        0.6463
       5.2534        0.4560
       5.3672        0.2938
       5.4918        0.1635
       5.6257        0.0681
       5.7673        0.0099
       5.9147       -0.0093
       6.0658        0.0113
       6.2185        0.0717
       6.3703        0.1713
       6.5191        0.3085
       6.6624        0.4810
       6.7980        0.6859
       6.9236        0.9194
       7.0370        1.1774
       7.1364        1.4551
       7.2199        1.7472
       7.2860        2.0484
       7.3334        2.3529
       7.3611        2.6549
       7.3685        2.9485
       7.3551        3.2282
       7.3209        3.4884
       7.2662        3.7241
       7.1915        3.9306
       7.0977        4.1038
       6.9862        4.2401
       6.8583        4.3366
       6.7158        4.3914
       6.5607        4.4029
       6.3952        4.3708
       6.2215        4.2953
       6.0421        4.1775
       5.8595        4.0192
       5.6761        3.8233
       5.4945        3.5929
       5.3172        3.3323
       5.1463        3.0458
       4.9842        2.7386
       4.8328        2.4162
       4.6939        2.0842
       4.5690        1.7486
       4.4595        1.4154
       4.3663        1.0905
       4.2901        0.7796
       4.2312        0.4883
       4.1899        0.2215
       4.1657       -0.0159
       4.1583       -0.2200
       4.1666       -0.3873
       4.1898       -0.5152
# Peak positions (2 theta), intensity, half-width, weight Gauss/Lorentz (for pseudo-voigt),
# peak number        0
      26.0751        6.6615        0.0923        0.5000
      26.0775        6.6945        0.0923        0.5000
      26.0787        6.6965        0.0923        0.5000
      26.0785        6.6673        0.0923        0.5000
      26.0771        6.6077        0.0923        0.5000
      26.0745        6.5187        0.0923        0.5000
      26.0707        6.4020        0.0923        0.5000
      26.0658        6.2600        0.0923        0.5000
      26.0600        6.0954        0.0923        0.5000
      26.0532        5.9115        0.0923        0.5000
      26.0458        5.7117        0.0923        0.5000
      26.0377        5.5000        0.0923        0.5000
      26.0292        5.2804        0.0923        0.5000
      26.0206        5.0574        0.0923        0.5000
      26.0118        4.8352        0.0923        0.5000
      26.0032        4.6181        0.0923        0.5000
      25.9948        4.4104        0.0923        0.5000
      25.9869        4.2161        0.0923        0.5000
      25.9796        4.0390        0.0923        0.5000
      25.9731        3.8825        0.0923        0.5000
      25.9675        3.7497        0.0923        0.5000
      25.9629        3.6432        0.0923        0.5000
      25.9594        3.5650        0.0923        0.5000
      25.9571        3.5167        0.0923        0.5000
      25.9560        3.4992        0.0923        0.5000
      25.9562        3.5128        0.0923        0.5000
      25.9576        3.5573        0.0923        0.5000
      25.9602        3.6318        0.0923        0.5000
      25.9641        3.7349        0.0923        0.5000
      25.9690        3.8646        0.0923        0.5000
      25.9750        4.0182        0.0923        0.5000
      25.9818        4.1929        0.0923        0.5000
      25.9895        4.3853        0.0923        0.5000
      25.9978        4.5915        0.0923        0.5000
      26.0065        4.8077        0.0923        0.5000
      26.0156        5.0295        0.0923        0.5000
      26.0248        5.2527        0.0923        0.5000
      26.0339        5.4728        0.0923        0.5000
      26.0428        5.6858        0.0923        0.5000
      26.0513        5.8873        0.0923        0.5000
      26.0592        6.0734        0.0923        0.5000
      26.0664        6.2406        0.0923        0.5000
      26.0727        6.3856        0.0923        0.5000
      26.0781        6.5056        0.0923        0.5000
      26.0822        6.5981        0.0923        0.5000
      26.0852        6.6615        0.0923        0.5000
      26.0870        6.6945        0.0923        0.5000
      26.0874        6.6965        0.0923        0.5000
      26.0865        6.6673        0.0923        0.5000
      26.0843        6.6077        0.0923        0.5000
      26.0808        6.5187        0.0923        0.5000
      26.0762        6.4020        0.0923        0.5000
      26.0704        6.2600        0.0923        0.5000
      26.0636        6.0954        0.0923        0.5000
      26.0559        5.9115        0.0923        0.5000
      26.0475        5.7117        0.0923        0.5000
      26.0384        5.5000        0.0923        0.5000
      26.0290        5.2804        0.0923        0.5000
      26.0194        5.0574        0.0923        0.5000
      26.0096        4.8352        0.0923        0.5000
      26.0001        4.6181        0.0923        0.5000
      25.9908        4.4104        0.0923        0.5000
      25.9820        4.2161        0.0923        0.5000
      25.9738        4.0390        0.0923        0.5000
      25.9665        3.8825        0.0923        0.5000
      25.9600        3.7497        0.0923        0.5000
      25.9546        3.6432        0.0923        0.5000
      25.9504        3.5650        0.0923        0.5000
      25.9474        3.5167        0.0923        0.5000
      25.9456        3.4992        0.0923        0.5000
      25.9452        3.5128        0.0923        0.5000
      25.9461        3.5573        0.0923        0.5000
      25.9482        3.6318        0.0923        0.5000
      25.9516        3.7349        0.0923        0.5000
      25.9562        3.8646        0.0923        0.5000
      25.9618        4.0182        0.0923        0.5000
      25.9684        4.1929        0.0923        0.5000
      25.9759        4.3853        0.0923        0.5000
      25.9841        4.5915        0.0923        0.5000
      25.9928        4.8077        0.0923        0.5000
      26.0018        5.0295        0.0923        0.5000
      26.0111        5.2527        0.0923        0.5000
      26.0204        5.4728        0.0923        0.5000
      26.0295        5.6858        0.0923        0.5000
      26.0382        5.8873        0.0923        0.5000
      26.0465        6.0734        0.0923        0.5000
      26.0541        6.2406        0.0923        0.5000
      26.0609        6.3856        0.0923        0.5000
      26.0667        6.5056        0.0923        0.5000
      26.0715        6.5981        0.0923        0.5000
