# File version
1
# Peak profile (0: gauss, 1: pseudo-voigt, 2: lorentz)
       0
# Number of sub-patterns
       5
# Sub-patterns        0
# Number of peaks
       2
# Peak profile
       1
# Width factor
     15.00000
# Range in azimuth: nvalues, and values
        90
       0.0
       4.0
       8.0
      12.0
      16.0
      20.0
      24.0
      28.0
      32.0
      36.0
      40.0
      44.0
      48.0
      52.0
      56.0
      60.0
      64.0
      68.0
      72.0
      76.0
      80.0
      84.0
      88.0
      92.0
      96.0
     100.0
     104.0
     108.0
     112.0
     116.0
     120.0
     124.0
     128.0
     132.0
     136.0
     140.0
     144.0
     148.0
     152.0
     156.0
     160.0
     164.0
     168.0
     172.0
     176.0
     180.0
     184.0
     188.0
     192.0
     196.0
     200.0
     204.0
     208.0
     212.0
     216.0
     220.0
     224.0
     228.0
     232.0
     236.0
     240.0
     244.0
     248.0
     252.0
     256.0
     260.0
     264.0
     268.0
     272.0
     276.0
     280.0
     284.0
     288.0
     292.0
     296.0
     300.0
     304.0
     308.0
     312.0
     316.0
     320.0
     324.0
     328.0
     332.0
     336.0
     340.0
     344.0
     348.0
     352.0
     356.0
# background positions, in 2 theta (left/right)
      10.8000       11.6700
      10.8000       11.6700
      10.8000       11.6700
      10.8000       11.6700
      10.8000       11.6700
      10.8000       11.6700
      10.8000       11.6700
      10.8000       11.6700
      10.8000       11.6700
      10.8000       11.6700
      10.8000       11.6700
      10.8000       11.6700
      10.8000       11.6700
      10.8000       11.6700
      10.8000       11.6700
      10.8000       11.6700
      10.8000       11.6700
      10.8000       11.6700
      10.8000       11.6700
      10.8000       11.6700
      10.8000       11.6700
      10.8000       11.6700
      10.8000       11.6700
      10.8000       11.6700
      10.8000       11.6700
      10.8000       11.6700
      10.8000       11.6700
      10.8000       11.6700
      10.8000       11.6700
      10.8000       11.6700
      10.8000       11.6700
      10.8000       11.6700
      10.8000       11.6700
      10.8000       11.6700
      10.8000       11.6700
      10.8000       11.6700
      10.8000       11.6700
      10.8000       11.6700
      10.8000       11.6700
      10.8000       11.6700
      10.8000       11.6700
      10.8000       11.6700
      10.8000       11.6700
      10.8000       11.6700
      10.8000       11.6700
      10.8000       11.6700
      10.8000       11.6700
      10.8000       11.6700
      10.8000       11.6700
      10.8000       11.6700
      10.8000       11.6700
      10.8000       11.6700
      10.8000       11.6700
      10.8000       11.6700
      10.8000       11.6700
      10.8000       11.6700
      10.8000       11.6700
      10.8000       11.6700
      10.8000       11.6700
      10.8000       11.6700
      10.8000       11.6700
      10.8000       11.6700
      10.8000       11.6700
      10.8000       11.6700
      10.8000       11.6700
      10.8000       11.6700
      10.8000       11.6700
      10.8000       11.6700
      10.8000       11.6700
      10.8000       11.6700
      10.8000       11.6700
      10.8000       11.6700
      10.8000       11.6700
      10.8000       11.6700
      10.8000       11.6700
      10.8000       11.6700
      10.8000       11.6700
      10.8000       11.6700
      10.8000       11.6700
      10.8000       11.6700
      10.8000       11.6700
      10.8000       11.6700
      10.8000       11.6700
      10.8000       11.6700
      10.8000       11.6700
      10.8000       11.6700
      10.8000       11.6700
      10.8000       11.6700
      10.8000       11.6700
      10.8000       11.6700
# background coefficients
       4.2742        4.0056
       4.2742        4.0056
       4.2742        4.0056
       4.2742        4.0056
       4.2742        4.0056
       4.2742        4.0056
       4.2742        4.0056
       4.2742        4.0056
       4.2742        4.0056
       4.2742        4.0056
       4.2742        4.0056
       4.2742        4.0056
       4.2742        4.0056
       4.2742        4.0056
       4.2742        4.0056
       4.2742        4.0056
       4.2742        4.0056
       4.2742        4.0056
       4.2742        4.0056
       4.2742        4.0056
       4.2742        4.0056
       4.2742        4.0056
       4.2742        4.0056
       4.2742        4.0056
       4.2742        4.0056
       4.2742        4.0056
       4.2742        4.0056
       4.2742        4.0056
       4.2742        4.0056
       4.2742        4.0056
       4.2742        4.0056
       4.2742        4.0056
       4.2742        4.0056
       4.2742        4.0056
       4.2742        4.0056
       4.2742        4.0056
       4.2742        4.0056
       4.2742        4.0056
       4.2742        4.0056
       4.2742        4.0056
       4.2742        4.0056
       4.2742        4.0056
       4.2742        4.0056
       4.2742        4.0056
       4.2742        4.0056
       4.2742        4.0056
       4.2742        4.0056
       4.2742        4.0056
       4.2742        4.0056
       4.2742        4.0056
       4.2742        4.0056
       4.2742        4.0056
       4.2742        4.0056
       4.2742        4.0056
       4.2742        4.0056
       4.2742        4.0056
       4.2742        4.0056
       4.2742        4.0056
       4.2742        4.0056
       4.2742        4.0056
       4.2742        4.0056
       4.2742        4.0056
       4.2742        4.0056
       4.2742        4.0056
       4.2742        4.0056
       4.2742        4.0056
       4.2742        4.0056
       4.2742        4.0056
       4.2742        4.0056
       4.2742        4.0056
       4.2742        4.0056
       4.2742        4.0056
       4.2742        4.0056
       4.2742        4.0056
       4.2742        4.0056
       4.2742        4.0056
       4.2742        4.0056
       4.2742        4.0056
       4.2742        4.0056
       4.2742        4.0056
       4.2742        4.0056
       4.2742        4.0056
       4.2742        4.0056
       4.2742        4.0056
       4.2742        4.0056
       4.2742        4.0056
       4.2742        4.0056
       4.2742        4.0056
       4.2742        4.0056
       4.2742        4.0056
# Peak positions (2 theta), intensity, half-width, weight Gauss/Lorentz (for pseudo-voigt),
# peak number        0
      11.2007       45.6013        0.0365        0.1000
      11.2000       45.5043        0.0365        0.1000
      11.1992       45.4761        0.0365        0.1000
      11.1983       45.5173        0.0365        0.1000
      11.1972       45.6270        0.0365        0.1000
      11.1960       45.8032        0.0365        0.1000
      11.1948       46.0423        0.0365        0.1000
      11.1935       46.3398        0.0365        0.1000
      11.1922       46.6899        0.0365        0.1000
      11.1908       47.0857        0.0365        0.1000
      11.1895       47.5195        0.0365        0.1000
      11.1883       47.9830        0.0365        0.1000
      11.1871       48.4670        0.0365        0.1000
      11.1861       48.9621        0.0365        0.1000
      11.1852       49.4588        0.0365        0.1000
      11.1844       49.9473        0.0365        0.1000
      11.1838       50.4181        0.0365        0.1000
      11.1833       50.8621        0.0365        0.1000
      11.1831       51.2707        0.0365        0.1000
      11.1830       51.6358        0.0365        0.1000
      11.1832       51.9504        0.0365        0.1000
      11.1836       52.2084        0.0365        0.1000
      11.1841       52.4047        0.0365        0.1000
      11.1848       52.5355        0.0365        0.1000
      11.1857       52.5982        0.0365        0.1000
      11.1867       52.5917        0.0365        0.1000
      11.1879       52.5161        0.0365        0.1000
      11.1892       52.3728        0.0365        0.1000
      11.1905       52.1646        0.0365        0.1000
      11.1919       51.8956        0.0365        0.1000
      11.1933       51.5710        0.0365        0.1000
      11.1947       51.1972        0.0365        0.1000
      11.1961       50.7814        0.0365        0.1000
      11.1974       50.3316        0.0365        0.1000
      11.1986       49.8568        0.0365        0.1000
      11.1997       49.3660        0.0365        0.1000
      11.2006       48.8689        0.0365        0.1000
      11.2014       48.3751        0.0365        0.1000
      11.2021       47.8942        0.0365        0.1000
      11.2025       47.4357        0.0365        0.1000
      11.2028       47.0084        0.0365        0.1000
      11.2029       46.6206        0.0365        0.1000
      11.2027       46.2799        0.0365        0.1000
      11.2024       45.9929        0.0365        0.1000
      11.2020       45.7652        0.0365        0.1000
      11.2013       45.6013        0.0365        0.1000
      11.2005       45.5043        0.0365        0.1000
      11.1996       45.4761        0.0365        0.1000
      11.1985       45.5173        0.0365        0.1000
      11.1974       45.6270        0.0365        0.1000
      11.1962       45.8032        0.0365        0.1000
      11.1950       46.0423        0.0365        0.1000
      11.1937       46.3398        0.0365        0.1000
      11.1924       46.6899        0.0365        0.1000
      11.1912       47.0857        0.0365        0.1000
      11.1900       47.5195        0.0365        0.1000
      11.1889       47.9830        0.0365        0.1000
      11.1879       48.4670        0.0365        0.1000
      11.1870       48.9621        0.0365        0.1000
      11.1862       49.4588        0.0365        0.1000
      11.1855       49.9473        0.0365        0.1000
      11.1850       50.4181        0.0365        0.1000
      11.1847       50.8621        0.0365        0.1000
      11.1845       51.2707        0.0365        0.1000
      11.1845       51.6358        0.0365        0.1000
      11.1846       51.9504        0.0365        0.1000
      11.1849       52.2084        0.0365        0.1000
      11.1853       52.4047        0.0365        0.1000
      11.1859       52.5355        0.0365        0.1000
      11.1866       52.5982        0.0365        0.1000
      11.1875       52.5917        0.0365        0.1000
      11.1884       52.5161        0.0365        0.1000
      11.1894       52.3728        0.0365        0.1000
      11.1905       52.1646        0.0365        0.1000
      11.1917       51.8956        0.0365        0.1000
      11.1928       51.5710        0.0365        0.1000
      11.1940       51.1972        0.0365        0.1000
      11.1952       50.7814        0.0365        0.1000
      11.1963       50.3316        0.0365        0.1000
      11.1973       49.8568        0.0365        0.1000
      11.1983       49.3660        0.0365        0.1000
      11.1992       48.8689        0.0365        0.1000
      11.2000       48.3751        0.0365        0.1000
      11.2006       47.8942        0.0365        0.1000
      11.2011       47.4357        0.0365        0.1000
      11.2015       47.0084        0.0365        0.1000
      11.2017       46.6206        0.0365        0.1000
      11.2017       46.2799        0.0365        0.1000
      11.2015       45.9929        0.0365        0.1000
      11.2012       45.7652        0.0365        0.1000
# peak number        1
      11.5567      767.9357        0.0345        0.6989
      11.5574      649.5478        0.0345        0.6989
      11.5579      360.1065        0.0345        0.6989
      11.5582      165.4796        0.0345        0.6989
      11.5583       93.2157        0.0345        0.6989
      11.5581       52.7910        0.0345        0.6989
      11.5578       28.1995        0.0345        0.6989
      11.5572       23.2203        0.0345        0.6989
      11.5563       24.9508        0.0345        0.6989
      11.5553       22.7454        0.0345        0.6989
      11.5541       27.1877        0.0345        0.6989
      11.5526       54.5732        0.0345        0.6989
      11.5511       93.8530        0.0345        0.6989
      11.5494      139.1747        0.0345        0.6989
      11.5476      188.7228        0.0345        0.6989
      11.5458      207.5661        0.0345        0.6989
      11.5439      173.2053        0.0345        0.6989
      11.5422      108.3814        0.0345        0.6989
      11.5405       56.5342        0.0345        0.6989
      11.5389       46.4840        0.0345        0.6989
      11.5376       59.0205        0.0345        0.6989
      11.5365       68.2544        0.0345        0.6989
      11.5356       76.3627        0.0345        0.6989
      11.5350       74.0019        0.0345        0.6989
      11.5348       59.7133        0.0345        0.6989
      11.5348       58.0646        0.0345        0.6989
      11.5353       71.9024        0.0345        0.6989
      11.5361       93.5858        0.0345        0.6989
      11.5372      131.2507        0.0345        0.6989
      11.5387      183.4573        0.0345        0.6989
      11.5404      214.3031        0.0345        0.6989
      11.5425      176.3922        0.0345        0.6989
      11.5448       94.4860        0.0345        0.6989
      11.5472       44.1357        0.0345        0.6989
      11.5499       29.5744        0.0345        0.6989
      11.5526       19.4524        0.0345        0.6989
      11.5553       16.5811        0.0345        0.6989
      11.5580       17.8868        0.0345        0.6989
      11.5606       23.8909        0.0345        0.6989
      11.5631       36.2527        0.0345        0.6989
      11.5654       46.1202        0.0345        0.6989
      11.5674       86.7349        0.0345        0.6989
      11.5692      187.3097        0.0345        0.6989
      11.5706      355.8323        0.0345        0.6989
      11.5717      600.5986        0.0345        0.6989
      11.5724      767.9357        0.0345        0.6989
      11.5728      649.5478        0.0345        0.6989
      11.5727      360.1065        0.0345        0.6989
      11.5723      165.4796        0.0345        0.6989
      11.5715       93.2157        0.0345        0.6989
      11.5704       52.7910        0.0345        0.6989
      11.5690       28.1995        0.0345        0.6989
      11.5674       23.2203        0.0345        0.6989
      11.5654       24.9508        0.0345        0.6989
      11.5634       22.7454        0.0345        0.6989
      11.5611       27.1877        0.0345        0.6989
      11.5588       54.5732        0.0345        0.6989
      11.5564       93.8530        0.0345        0.6989
      11.5540      139.1747        0.0345        0.6989
      11.5517      188.7228        0.0345        0.6989
      11.5494      207.5661        0.0345        0.6989
      11.5473      173.2053        0.0345        0.6989
      11.5453      108.3814        0.0345        0.6989
      11.5434       56.5342        0.0345        0.6989
      11.5418       46.4840        0.0345        0.6989
      11.5404       59.0205        0.0345        0.6989
      11.5392       68.2544        0.0345        0.6989
      11.5382       76.3627        0.0345        0.6989
      11.5375       74.0019        0.0345        0.6989
      11.5370       59.7133        0.0345        0.6989
      11.5367       58.0646        0.0345        0.6989
      11.5367       71.9024        0.0345        0.6989
      11.5369       93.5858        0.0345        0.6989
      11.5372      131.2507        0.0345        0.6989
      11.5378      183.4573        0.0345        0.6989
      11.5385      214.3031        0.0345        0.6989
      11.5394      176.3922        0.0345        0.6989
      11.5404       94.4860        0.0345        0.6989
      11.5416       44.1357        0.0345        0.6989
      11.5428       29.5744        0.0345        0.6989
      11.5441       19.4524        0.0345        0.6989
      11.5455       16.5811        0.0345        0.6989
      11.5469       17.8868        0.0345        0.6989
      11.5483       23.8909        0.0345        0.6989
      11.5497       36.2527        0.0345        0.6989
      11.5511       46.1202        0.0345        0.6989
      11.5524       86.7349        0.0345        0.6989
      11.5537      187.3097        0.0345        0.6989
      11.5548      355.8323        0.0345        0.6989
      11.5558      600.5986        0.0345        0.6989
# Sub-patterns        1
# Number of peaks
       1
# Peak profile
       1
# Width factor
     15.00000
# Range in azimuth: nvalues, and values
        90
       0.0
       4.0
       8.0
      12.0
      16.0
      20.0
      24.0
      28.0
      32.0
      36.0
      40.0
      44.0
      48.0
      52.0
      56.0
      60.0
      64.0
      68.0
      72.0
      76.0
      80.0
      84.0
      88.0
      92.0
      96.0
     100.0
     104.0
     108.0
     112.0
     116.0
     120.0
     124.0
     128.0
     132.0
     136.0
     140.0
     144.0
     148.0
     152.0
     156.0
     160.0
     164.0
     168.0
     172.0
     176.0
     180.0
     184.0
     188.0
     192.0
     196.0
     200.0
     204.0
     208.0
     212.0
     216.0
     220.0
     224.0
     228.0
     232.0
     236.0
     240.0
     244.0
     248.0
     252.0
     256.0
     260.0
     264.0
     268.0
     272.0
     276.0
     280.0
     284.0
     288.0
     292.0
     296.0
     300.0
     304.0
     308.0
     312.0
     316.0
     320.0
     324.0
     328.0
     332.0
     336.0
     340.0
     344.0
     348.0
     352.0
     356.0
# background positions, in 2 theta (left/right)
      16.1000       16.6000
      16.1000       16.6000
      16.1000       16.6000
      16.1000       16.6000
      16.1000       16.6000
      16.1000       16.6000
      16.1000       16.6000
      16.1000       16.6000
      16.1000       16.6000
      16.1000       16.6000
      16.1000       16.6000
      16.1000       16.6000
      16.1000       16.6000
      16.1000       16.6000
      16.1000       16.6000
      16.1000       16.6000
      16.1000       16.6000
      16.1000       16.6000
      16.1000       16.6000
      16.1000       16.6000
      16.1000       16.6000
      16.1000       16.6000
      16.1000       16.6000
      16.1000       16.6000
      16.1000       16.6000
      16.1000       16.6000
      16.1000       16.6000
      16.1000       16.6000
      16.1000       16.6000
      16.1000       16.6000
      16.1000       16.6000
      16.1000       16.6000
      16.1000       16.6000
      16.1000       16.6000
      16.1000       16.6000
      16.1000       16.6000
      16.1000       16.6000
      16.1000       16.6000
      16.1000       16.6000
      16.1000       16.6000
      16.1000       16.6000
      16.1000       16.6000
      16.1000       16.6000
      16.1000       16.6000
      16.1000       16.6000
      16.1000       16.6000
      16.1000       16.6000
      16.1000       16.6000
      16.1000       16.6000
      16.1000       16.6000
      16.1000       16.6000
      16.1000       16.6000
      16.1000       16.6000
      16.1000       16.6000
      16.1000       16.6000
      16.1000       16.6000
      16.1000       16.6000
      16.1000       16.6000
      16.1000       16.6000
      16.1000       16.6000
      16.1000       16.6000
      16.1000       16.6000
      16.1000       16.6000
      16.1000       16.6000
      16.1000       16.6000
      16.1000       16.6000
      16.1000       16.6000
      16.1000       16.6000
      16.1000       16.6000
      16.1000       16.6000
      16.1000       16.6000
      16.1000       16.6000
      16.1000       16.6000
      16.1000       16.6000
      16.1000       16.6000
      16.1000       16.6000
      16.1000       16.6000
      16.1000       16.6000
      16.1000       16.6000
      16.1000       16.6000
      16.1000       16.6000
      16.1000       16.6000
      16.1000       16.6000
      16.1000       16.6000
      16.1000       16.6000
      16.1000       16.6000
      16.1000       16.6000
      16.1000       16.6000
      16.1000       16.6000
      16.1000       16.6000
# background coefficients
       5.1157        0.0584
       5.1157        0.0584
       5.1157        0.0584
       5.1157        0.0584
       5.1157        0.0584
       5.1157        0.0584
       5.1157        0.0584
       5.1157        0.0584
       5.1157        0.0584
       5.1157        0.0584
       5.1157        0.0584
       5.1157        0.0584
       5.1157        0.0584
       5.1157        0.0584
       5.1157        0.0584
       5.1157        0.0584
       5.1157        0.0584
       5.1157        0.0584
       5.1157        0.0584
       5.1157        0.0584
       5.1157        0.0584
       5.1157        0.0584
       5.1157        0.0584
       5.1157        0.0584
       5.1157        0.0584
       5.1157        0.0584
       5.1157        0.0584
       5.1157        0.0584
       5.1157        0.0584
       5.1157        0.0584
       5.1157        0.0584
       5.1157        0.0584
       5.1157        0.0584
       5.1157        0.0584
       5.1157        0.0584
       5.1157        0.0584
       5.1157        0.0584
       5.1157        0.0584
       5.1157        0.0584
       5.1157        0.0584
       5.1157        0.0584
       5.1157        0.0584
       5.1157        0.0584
       5.1157        0.0584
       5.1157        0.0584
       5.1157        0.0584
       5.1157        0.0584
       5.1157        0.0584
       5.1157        0.0584
       5.1157        0.0584
       5.1157        0.0584
       5.1157        0.0584
       5.1157        0.0584
       5.1157        0.0584
       5.1157        0.0584
       5.1157        0.0584
       5.1157        0.0584
       5.1157        0.0584
       5.1157        0.0584
       5.1157        0.0584
       5.1157        0.0584
       5.1157        0.0584
       5.1157        0.0584
       5.1157        0.0584
       5.1157        0.0584
       5.1157        0.0584
       5.1157        0.0584
       5.1157        0.0584
       5.1157        0.0584
       5.1157        0.0584
       5.1157        0.0584
       5.1157        0.0584
       5.1157        0.0584
       5.1157        0.0584
       5.1157        0.0584
       5.1157        0.0584
       5.1157        0.0584
       5.1157        0.0584
       5.1157        0.0584
       5.1157        0.0584
       5.1157        0.0584
       5.1157        0.0584
       5.1157        0.0584
       5.1157        0.0584
       5.1157        0.0584
       5.1157        0.0584
       5.1157        0.0584
       5.1157        0.0584
       5.1157        0.0584
       5.1157        0.0584
# Peak positions (2 theta), intensity, half-width, weight Gauss/Lorentz (for pseudo-voigt),
# peak number        0
      16.3821        2.1115        0.0573        0.5638
      16.3840        2.2712        0.0573        0.5638
      16.3852        2.4470        0.0573        0.5638
      16.3858        2.9342        0.0573        0.5638
      16.3859        3.7306        0.0573        0.5638
      16.3852        4.5819        0.0573        0.5638
      16.3839        5.5445        0.0573        0.5638
      16.3821        7.2117        0.0573        0.5638
      16.3796       10.0671        0.0573        0.5638
      16.3766       13.5659        0.0573        0.5638
      16.3732       16.1110        0.0573        0.5638
      16.3695       16.2431        0.0573        0.5638
      16.3655       13.9585        0.0573        0.5638
      16.3613       10.7394        0.0573        0.5638
      16.3571        8.1708        0.0573        0.5638
      16.3530        6.5830        0.0573        0.5638
      16.3490        5.2100        0.0573        0.5638
      16.3453        3.6916        0.0573        0.5638
      16.3420        3.1468        0.0573        0.5638
      16.3391        5.3591        0.0573        0.5638
      16.3366       10.6699        0.0573        0.5638
      16.3348       16.7929        0.0573        0.5638
      16.3335       20.0852        0.0573        0.5638
      16.3327       18.3788        0.0573        0.5638
      16.3326       12.7776        0.0573        0.5638
      16.3331        6.7053        0.0573        0.5638
      16.3341        3.1208        0.0573        0.5638
      16.3356        2.5288        0.0573        0.5638
      16.3376        3.4746        0.0573        0.5638
      16.3399        4.6531        0.0573        0.5638
      16.3426        6.2635        0.0573        0.5638
      16.3455        9.2803        0.0573        0.5638
      16.3486       13.6662        0.0573        0.5638
      16.3517       17.6667        0.0573        0.5638
      16.3549       19.0809        0.0573        0.5638
      16.3581       17.2224        0.0573        0.5638
      16.3611       13.5360        0.0573        0.5638
      16.3639       10.2627        0.0573        0.5638
      16.3665        8.5418        0.0573        0.5638
      16.3689        7.7936        0.0573        0.5638
      16.3710        6.7789        0.0573        0.5638
      16.3728        5.0287        0.0573        0.5638
      16.3744        3.1757        0.0573        0.5638
      16.3756        2.0782        0.0573        0.5638
      16.3765        1.8959        0.0573        0.5638
      16.3771        2.1115        0.0573        0.5638
      16.3775        2.2712        0.0573        0.5638
      16.3776        2.4470        0.0573        0.5638
      16.3775        2.9342        0.0573        0.5638
      16.3772        3.7306        0.0573        0.5638
      16.3767        4.5819        0.0573        0.5638
      16.3759        5.5445        0.0573        0.5638
      16.3751        7.2117        0.0573        0.5638
      16.3740       10.0671        0.0573        0.5638
      16.3728       13.5659        0.0573        0.5638
      16.3715       16.1110        0.0573        0.5638
      16.3701       16.2431        0.0573        0.5638
      16.3685       13.9585        0.0573        0.5638
      16.3667       10.7394        0.0573        0.5638
      16.3649        8.1708        0.0573        0.5638
      16.3630        6.5830        0.0573        0.5638
      16.3609        5.2100        0.0573        0.5638
      16.3588        3.6916        0.0573        0.5638
      16.3567        3.1468        0.0573        0.5638
      16.3545        5.3591        0.0573        0.5638
      16.3524       10.6699        0.0573        0.5638
      16.3503       16.7929        0.0573        0.5638
      16.3483       20.0852        0.0573        0.5638
      16.3464       18.3788        0.0573        0.5638
      16.3448       12.7776        0.0573        0.5638
      16.3434        6.7053        0.0573        0.5638
      16.3422        3.1208        0.0573        0.5638
      16.3415        2.5288        0.0573        0.5638
      16.3411        3.4746        0.0573        0.5638
      16.3411        4.6531        0.0573        0.5638
      16.3415        6.2635        0.0573        0.5638
      16.3424        9.2803        0.0573        0.5638
      16.3438       13.6662        0.0573        0.5638
      16.3456       17.6667        0.0573        0.5638
      16.3478       19.0809        0.0573        0.5638
      16.3505       17.2224        0.0573        0.5638
      16.3534       13.5360        0.0573        0.5638
      16.3566       10.2627        0.0573        0.5638
      16.3601        8.5418        0.0573        0.5638
      16.3636        7.7936        0.0573        0.5638
      16.3672        6.7789        0.0573        0.5638
      16.3707        5.0287        0.0573        0.5638
      16.3740        3.1757        0.0573        0.5638
      16.3771        2.0782        0.0573        0.5638
      16.3798        1.8959        0.0573        0.5638
# Sub-patterns        2
# Number of peaks
       1
# Peak profile
       1
# Width factor
     15.00000
# Range in azimuth: nvalues, and values
        90
       0.0
       4.0
       8.0
      12.0
      16.0
      20.0
      24.0
      28.0
      32.0
      36.0
      40.0
      44.0
      48.0
      52.0
      56.0
      60.0
      64.0
      68.0
      72.0
      76.0
      80.0
      84.0
      88.0
      92.0
      96.0
     100.0
     104.0
     108.0
     112.0
     116.0
     120.0
     124.0
     128.0
     132.0
     136.0
     140.0
     144.0
     148.0
     152.0
     156.0
     160.0
     164.0
     168.0
     172.0
     176.0
     180.0
     184.0
     188.0
     192.0
     196.0
     200.0
     204.0
     208.0
     212.0
     216.0
     220.0
     224.0
     228.0
     232.0
     236.0
     240.0
     244.0
     248.0
     252.0
     256.0
     260.0
     264.0
     268.0
     272.0
     276.0
     280.0
     284.0
     288.0
     292.0
     296.0
     300.0
     304.0
     308.0
     312.0
     316.0
     320.0
     324.0
     328.0
     332.0
     336.0
     340.0
     344.0
     348.0
     352.0
     356.0
# background positions, in 2 theta (left/right)
      19.8000       20.2700
      19.8000       20.2700
      19.8000       20.2700
      19.8000       20.2700
      19.8000       20.2700
      19.8000       20.2700
      19.8000       20.2700
      19.8000       20.2700
      19.8000       20.2700
      19.8000       20.2700
      19.8000       20.2700
      19.8000       20.2700
      19.8000       20.2700
      19.8000       20.2700
      19.8000       20.2700
      19.8000       20.2700
      19.8000       20.2700
      19.8000       20.2700
      19.8000       20.2700
      19.8000       20.2700
      19.8000       20.2700
      19.8000       20.2700
      19.8000       20.2700
      19.8000       20.2700
      19.8000       20.2700
      19.8000       20.2700
      19.8000       20.2700
      19.8000       20.2700
      19.8000       20.2700
      19.8000       20.2700
      19.8000       20.2700
      19.8000       20.2700
      19.8000       20.2700
      19.8000       20.2700
      19.8000       20.2700
      19.8000       20.2700
      19.8000       20.2700
      19.8000       20.2700
      19.8000       20.2700
      19.8000       20.2700
      19.8000       20.2700
      19.8000       20.2700
      19.8000       20.2700
      19.8000       20.2700
      19.8000       20.2700
      19.8000       20.2700
      19.8000       20.2700
      19.8000       20.2700
      19.8000       20.2700
      19.8000       20.2700
      19.8000       20.2700
      19.8000       20.2700
      19.8000       20.2700
      19.8000       20.2700
      19.8000       20.2700
      19.8000       20.2700
      19.8000       20.2700
      19.8000       20.2700
      19.8000       20.2700
      19.8000       20.2700
      19.8000       20.2700
      19.8000       20.2700
      19.8000       20.2700
      19.8000       20.2700
      19.8000       20.2700
      19.8000       20.2700
      19.8000       20.2700
      19.8000       20.2700
      19.8000       20.2700
      19.8000       20.2700
      19.8000       20.2700
      19.8000       20.2700
      19.8000       20.2700
      19.8000       20.2700
      19.8000       20.2700
      19.8000       20.2700
      19.8000       20.2700
      19.8000       20.2700
      19.8000       20.2700
      19.8000       20.2700
      19.8000       20.2700
      19.8000       20.2700
      19.8000       20.2700
      19.8000       20.2700
      19.8000       20.2700
      19.8000       20.2700
      19.8000       20.2700
      19.8000       20.2700
      19.8000       20.2700
      19.8000       20.2700
# background coefficients
       5.1282        0.6303
       5.1282        0.6303
       5.1282        0.6303
       5.1282        0.6303
       5.1282        0.6303
       5.1282        0.6303
       5.1282        0.6303
       5.1282        0.6303
       5.1282        0.6303
       5.1282        0.6303
       5.1282        0.6303
       5.1282        0.6303
       5.1282        0.6303
       5.1282        0.6303
       5.1282        0.6303
       5.1282        0.6303
       5.1282        0.6303
       5.1282        0.6303
       5.1282        0.6303
       5.1282        0.6303
       5.1282        0.6303
       5.1282        0.6303
       5.1282        0.6303
       5.1282        0.6303
       5.1282        0.6303
       5.1282        0.6303
       5.1282        0.6303
       5.1282        0.6303
       5.1282        0.6303
       5.1282        0.6303
       5.1282        0.6303
       5.1282        0.6303
       5.1282        0.6303
       5.1282        0.6303
       5.1282        0.6303
       5.1282        0.6303
       5.1282        0.6303
       5.1282        0.6303
       5.1282        0.6303
       5.1282        0.6303
       5.1282        0.6303
       5.1282        0.6303
       5.1282        0.6303
       5.1282        0.6303
       5.1282        0.6303
       5.1282        0.6303
       5.1282        0.6303
       5.1282        0.6303
       5.1282        0.6303
       5.1282        0.6303
       5.1282        0.6303
       5.1282        0.6303
       5.1282        0.6303
       5.1282        0.6303
       5.1282        0.6303
       5.1282        0.6303
       5.1282        0.6303
       5.1282        0.6303
       5.1282        0.6303
       5.1282        0.6303
       5.1282        0.6303
       5.1282        0.6303
       5.1282        0.6303
       5.1282        0.6303
       5.1282        0.6303
       5.1282        0.6303
       5.1282        0.6303
       5.1282        0.6303
       5.1282        0.6303
       5.1282        0.6303
       5.1282        0.6303
       5.1282        0.6303
       5.1282        0.6303
       5.1282        0.6303
       5.1282        0.6303
       5.1282        0.6303
       5.1282        0.6303
       5.1282        0.6303
       5.1282        0.6303
       5.1282        0.6303
       5.1282        0.6303
       5.1282        0.6303
       5.1282        0.6303
       5.1282        0.6303
       5.1282        0.6303
       5.1282        0.6303
       5.1282        0.6303
       5.1282        0.6303
       5.1282        0.6303
       5.1282        0.6303
# Peak positions (2 theta), intensity, half-width, weight Gauss/Lorentz (for pseudo-voigt),
# peak number        0
      20.0898        3.7802        0.0537        0.7500
      20.0915        2.9629        0.0537        0.7824
      20.0926        2.2519        0.0537        0.8092
      20.0931        5.1273        0.0537        0.8301
      20.0931       12.8622        0.0537        0.8445
      20.0925       22.7754        0.0537        0.8522
      20.0914       29.9055        0.0537        0.8531
      20.0896       30.7153        0.0537        0.8471
      20.0874       25.7106        0.0537        0.8343
      20.0846       18.8685        0.0537        0.8150
      20.0814       14.5145        0.0537        0.7896
      20.0779       14.3119        0.0537        0.7586
      20.0741       16.6726        0.0537        0.7225
      20.0702       18.6903        0.0537        0.6821
      20.0661       18.6804        0.0537        0.6381
      20.0620       17.2335        0.0537        0.5915
      20.0580       16.2367        0.0537        0.5431
      20.0543       17.0488        0.0537        0.4938
      20.0507       19.4707        0.0537        0.4447
      20.0476       22.1780        0.0537        0.3966
      20.0449       23.9492        0.0537        0.3506
      20.0426       24.5033        0.0537        0.3074
      20.0409       24.3374        0.0537        0.2680
      20.0398       23.9465        0.0537        0.2332
      20.0393       23.2912        0.0537        0.2035
      20.0395       22.0177        0.0537        0.1796
      20.0402       20.1348        0.0537        0.1619
      20.0415       18.3768        0.0537        0.1508
      20.0434       17.7472        0.0537        0.1465
      20.0459       18.5389        0.0537        0.1491
      20.0488       19.7546        0.0537        0.1585
      20.0521       19.6814        0.0537        0.1746
      20.0557       17.4125        0.0537        0.1969
      20.0596       14.1007        0.0537        0.2252
      20.0637       12.6342        0.0537        0.2589
      20.0678       15.5607        0.0537        0.2972
      20.0720       22.6797        0.0537        0.3395
      20.0761       30.3713        0.0537        0.3849
      20.0801       33.6231        0.0537        0.4325
      20.0839       29.5281        0.0537        0.4815
      20.0874       19.5734        0.0537        0.5308
      20.0905        8.7431        0.0537        0.5795
      20.0932        1.9726        0.0537        0.6267
      20.0956        0.7429        0.0537        0.6714
      20.0974        2.5777        0.0537        0.7128
      20.0988        3.7802        0.0537        0.7500
      20.0997        2.9629        0.0537        0.7824
      20.1001        2.2519        0.0537        0.8092
      20.1000        5.1273        0.0537        0.8301
      20.0994       12.8622        0.0537        0.8445
      20.0983       22.7754        0.0537        0.8522
      20.0969       29.9055        0.0537        0.8531
      20.0950       30.7153        0.0537        0.8471
      20.0927       25.7106        0.0537        0.8343
      20.0902       18.8685        0.0537        0.8150
      20.0873       14.5145        0.0537        0.7896
      20.0842       14.3119        0.0537        0.7586
      20.0810       16.6726        0.0537        0.7225
      20.0776       18.6903        0.0537        0.6821
      20.0741       18.6804        0.0537        0.6381
      20.0707       17.2335        0.0537        0.5915
      20.0672       16.2367        0.0537        0.5431
      20.0638       17.0488        0.0537        0.4938
      20.0606       19.4707        0.0537        0.4447
      20.0575       22.1780        0.0537        0.3966
      20.0547       23.9492        0.0537        0.3506
      20.0521       24.5033        0.0537        0.3074
      20.0499       24.3374        0.0537        0.2680
      20.0480       23.9465        0.0537        0.2332
      20.0465       23.2912        0.0537        0.2035
      20.0453       22.0177        0.0537        0.1796
      20.0447       20.1348        0.0537        0.1619
      20.0445       18.3768        0.0537        0.1508
      20.0447       17.7472        0.0537        0.1465
      20.0454       18.5389        0.0537        0.1491
      20.0466       19.7546        0.0537        0.1585
      20.0482       19.6814        0.0537        0.1746
      20.0502       17.4125        0.0537        0.1969
      20.0526       14.1007        0.0537        0.2252
      20.0554       12.6342        0.0537        0.2589
      20.0584       15.5607        0.0537        0.2972
      20.0617       22.6797        0.0537        0.3395
      20.0651       30.3713        0.0537        0.3849
      20.0687       33.6231        0.0537        0.4325
      20.0722       29.5281        0.0537        0.4815
      20.0757       19.5734        0.0537        0.5308
      20.0791        8.7431        0.0537        0.5795
      20.0823        1.9726        0.0537        0.6267
      20.0852        0.7429        0.0537        0.6714
      20.0877        2.5777        0.0537        0.7128
# Sub-patterns        3
# Number of peaks
       1
# Peak profile
       1
# Width factor
     15.00000
# Range in azimuth: nvalues, and values
        90
       0.0
       4.0
       8.0
      12.0
      16.0
      20.0
      24.0
      28.0
      32.0
      36.0
      40.0
      44.0
      48.0
      52.0
      56.0
      60.0
      64.0
      68.0
      72.0
      76.0
      80.0
      84.0
      88.0
      92.0
      96.0
     100.0
     104.0
     108.0
     112.0
     116.0
     120.0
     124.0
     128.0
     132.0
     136.0
     140.0
     144.0
     148.0
     152.0
     156.0
     160.0
     164.0
     168.0
     172.0
     176.0
     180.0
     184.0
     188.0
     192.0
     196.0
     200.0
     204.0
     208.0
     212.0
     216.0
     220.0
     224.0
     228.0
     232.0
     236.0
     240.0
     244.0
     248.0
     252.0
     256.0
     260.0
     264.0
     268.0
     272.0
     276.0
     280.0
     284.0
     288.0
     292.0
     296.0
     300.0
     304.0
     308.0
     312.0
     316.0
     320.0
     324.0
     328.0
     332.0
     336.0
     340.0
     344.0
     348.0
     352.0
     356.0
# background positions, in 2 theta (left/right)
      23.1001       23.5000
      23.1001       23.5000
      23.1001       23.5000
      23.1001       23.5000
      23.1001       23.5000
      23.1001       23.5000
      23.1001       23.5000
      23.1001       23.5000
      23.1001       23.5000
      23.1001       23.5000
      23.1001       23.5000
      23.1001       23.5000
      23.1001       23.5000
      23.1001       23.5000
      23.1001       23.5000
      23.1001       23.5000
      23.1001       23.5000
      23.1001       23.5000
      23.1001       23.5000
      23.1001       23.5000
      23.1001       23.5000
      23.1001       23.5000
      23.1001       23.5000
      23.1001       23.5000
      23.1001       23.5000
      23.1001       23.5000
      23.1001       23.5000
      23.1001       23.5000
      23.1001       23.5000
      23.1001       23.5000
      23.1001       23.5000
      23.1001       23.5000
      23.1001       23.5000
      23.1001       23.5000
      23.1001       23.5000
      23.1001       23.5000
      23.1001       23.5000
      23.1001       23.5000
      23.1001       23.5000
      23.1001       23.5000
      23.1001       23.5000
      23.1001       23.5000
      23.1001       23.5000
      23.1001       23.5000
      23.1001       23.5000
      23.1001       23.5000
      23.1001       23.5000
      23.1001       23.5000
      23.1001       23.5000
      23.1001       23.5000
      23.1001       23.5000
      23.1001       23.5000
      23.1001       23.5000
      23.1001       23.5000
      23.1001       23.5000
      23.1001       23.5000
      23.1001       23.5000
      23.1001       23.5000
      23.1001       23.5000
      23.1001       23.5000
      23.1001       23.5000
      23.1001       23.5000
      23.1001       23.5000
      23.1001       23.5000
      23.1001       23.5000
      23.1001       23.5000
      23.1001       23.5000
      23.1001       23.5000
      23.1001       23.5000
      23.1001       23.5000
      23.1001       23.5000
      23.1001       23.5000
      23.1001       23.5000
      23.1001       23.5000
      23.1001       23.5000
      23.1001       23.5000
      23.1001       23.5000
      23.1001       23.5000
      23.1001       23.5000
      23.1001       23.5000
      23.1001       23.5000
      23.1001       23.5000
      23.1001       23.5000
      23.1001       23.5000
      23.1001       23.5000
      23.1001       23.5000
      23.1001       23.5000
      23.1001       23.5000
      23.1001       23.5000
      23.1001       23.5000
# background coefficients
       6.1631       -4.6298
       6.1372       -4.5112
       6.1172       -4.3785
       6.1035       -4.2341
       6.0962       -4.0808
       6.0954       -3.9215
       6.1012       -3.7590
       6.1132       -3.5964
       6.1312       -3.4366
       6.1548       -3.2826
       6.1834       -3.1371
       6.2164       -3.0026
       6.2530       -2.8816
       6.2925       -2.7761
       6.3340       -2.6877
       6.3766       -2.6180
       6.4193       -2.5678
       6.4612       -2.5379
       6.5015       -2.5284
       6.5392       -2.5392
       6.5735       -2.5697
       6.6037       -2.6188
       6.6291       -2.6853
       6.6490       -2.7674
       6.6631       -2.8632
       6.6710       -2.9704
       6.6724       -3.0865
       6.6672       -3.2089
       6.6555       -3.3349
       6.6374       -3.4616
       6.6132       -3.5863
       6.5833       -3.7061
       6.5483       -3.8184
       6.5088       -3.9208
       6.4655       -4.0109
       6.4193       -4.0867
       6.3709       -4.1466
       6.3214       -4.1891
       6.2717       -4.2132
       6.2227       -4.2182
       6.1754       -4.2040
       6.1307       -4.1707
       6.0895       -4.1187
       6.0527       -4.0492
       6.0209       -3.9632
       5.9948       -3.8627
       5.9750       -3.7494
       5.9619       -3.6257
       5.9558       -3.4939
       5.9568       -3.3569
       5.9651       -3.2173
       5.9805       -3.0780
       6.0027       -2.9419
       6.0315       -2.8118
       6.0664       -2.6906
       6.1067       -2.5807
       6.1518       -2.4846
       6.2008       -2.4044
       6.2529       -2.3421
       6.3072       -2.2990
       6.3627       -2.2765
       6.4184       -2.2752
       6.4734       -2.2956
       6.5267       -2.3376
       6.5772       -2.4008
       6.6242       -2.4843
       6.6668       -2.5870
       6.7043       -2.7071
       6.7360       -2.8427
       6.7614       -2.9917
       6.7801       -3.1514
       6.7918       -3.3192
       6.7963       -3.4922
       6.7937       -3.6673
       6.7840       -3.8416
       6.7676       -4.0119
       6.7447       -4.1753
       6.7158       -4.3290
       6.6817       -4.4702
       6.6429       -4.5964
       6.6003       -4.7056
       6.5547       -4.7957
       6.5071       -4.8654
       6.4583       -4.9133
       6.4094       -4.9388
       6.3612       -4.9415
       6.3148       -4.9214
       6.2710       -4.8792
       6.2306       -4.8155
       6.1944       -4.7319
# Peak positions (2 theta), intensity, half-width, weight Gauss/Lorentz (for pseudo-voigt),
# peak number        0
      23.2468        7.5669        0.0581        0.4517
      23.2490        6.8014        0.0581        0.4517
      23.2505        5.4962        0.0581        0.4517
      23.2513        3.8702        0.0581        0.4517
      23.2513        2.3104        0.0581        0.4517
      23.2505        1.2790        0.0581        0.4517
      23.2489        0.9475        0.0581        0.4517
      23.2466        0.9806        0.0581        0.4517
      23.2437        0.8383        0.0581        0.4517
      23.2401        0.4029        0.0581        0.4517
      23.2360        0.2796        0.0581        0.4517
      23.2315        1.3432        0.0581        0.4517
      23.2266        3.8484        0.0581        0.4517
      23.2215        6.9375        0.0581        0.4517
      23.2162        9.0869        0.0581        0.4517
      23.2109        9.1806        0.0581        0.4517
      23.2057        7.3143        0.0581        0.4517
      23.2006        4.6793        0.0581        0.4517
      23.1959        2.6874        0.0581        0.4517
      23.1915        2.0884        0.0581        0.4517
      23.1877        2.6994        0.0581        0.4517
      23.1844        3.7591        0.0581        0.4517
      23.1818        4.4794        0.0581        0.4517
      23.1798        4.4242        0.0581        0.4517
      23.1787        3.6550        0.0581        0.4517
      23.1783        2.7165        0.0581        0.4517
      23.1787        2.4328        0.0581        0.4517
      23.1800        3.4398        0.0581        0.4517
      23.1820        5.6300        0.0581        0.4517
      23.1848        7.9693        0.0581        0.4517
      23.1883        9.0271        0.0581        0.4517
      23.1925        7.9713        0.0581        0.4517
      23.1973        5.2466        0.0581        0.4517
      23.2026        2.2927        0.0581        0.4517
      23.2083        0.4678        0.0581        0.4517
      23.2143        0.0820        0.0581        0.4517
      23.2205        0.3720        0.0581        0.4517
      23.2268        0.3878        0.0581        0.4517
      23.2331       -0.0743        0.0581        0.4517
      23.2393       -0.3475        0.0581        0.4517
      23.2451        0.3848        0.0581        0.4517
      23.2506        2.2742        0.0581        0.4517
      23.2557        4.6578        0.0581        0.4517
      23.2601        6.6099        0.0581        0.4517
      23.2640        7.5826        0.0581        0.4517
      23.2670        7.5669        0.0581        0.4517
      23.2694        6.8014        0.0581        0.4517
      23.2708        5.4962        0.0581        0.4517
      23.2714        3.8702        0.0581        0.4517
      23.2712        2.3104        0.0581        0.4517
      23.2701        1.2790        0.0581        0.4517
      23.2681        0.9475        0.0581        0.4517
      23.2653        0.9806        0.0581        0.4517
      23.2618        0.8383        0.0581        0.4517
      23.2575        0.4029        0.0581        0.4517
      23.2526        0.2796        0.0581        0.4517
      23.2472        1.3432        0.0581        0.4517
      23.2414        3.8484        0.0581        0.4517
      23.2353        6.9375        0.0581        0.4517
      23.2289        9.0869        0.0581        0.4517
      23.2225        9.1806        0.0581        0.4517
      23.2161        7.3143        0.0581        0.4517
      23.2098        4.6793        0.0581        0.4517
      23.2037        2.6874        0.0581        0.4517
      23.1981        2.0884        0.0581        0.4517
      23.1929        2.6994        0.0581        0.4517
      23.1882        3.7591        0.0581        0.4517
      23.1842        4.4794        0.0581        0.4517
      23.1809        4.4242        0.0581        0.4517
      23.1783        3.6550        0.0581        0.4517
      23.1765        2.7165        0.0581        0.4517
      23.1755        2.4328        0.0581        0.4517
      23.1754        3.4398        0.0581        0.4517
      23.1761        5.6300        0.0581        0.4517
      23.1775        7.9693        0.0581        0.4517
      23.1798        9.0271        0.0581        0.4517
      23.1827        7.9713        0.0581        0.4517
      23.1863        5.2466        0.0581        0.4517
      23.1904        2.2927        0.0581        0.4517
      23.1950        0.4678        0.0581        0.4517
      23.2000        0.0820        0.0581        0.4517
      23.2052        0.3720        0.0581        0.4517
      23.2107        0.3878        0.0581        0.4517
      23.2161       -0.0743        0.0581        0.4517
      23.2215       -0.3475        0.0581        0.4517
      23.2267        0.3848        0.0581        0.4517
      23.2317        2.2742        0.0581        0.4517
      23.2363        4.6578        0.0581        0.4517
      23.2404        6.6099        0.0581        0.4517
      23.2439        7.5826        0.0581        0.4517
# Sub-patterns        4
# Number of peaks
       1
# Peak profile
       1
# Width factor
     15.00000
# Range in azimuth: nvalues, and values
        90
       0.0
       4.0
       8.0
      12.0
      16.0
      20.0
      24.0
      28.0
      32.0
      36.0
      40.0
      44.0
      48.0
      52.0
      56.0
      60.0
      64.0
      68.0
      72.0
      76.0
      80.0
      84.0
      88.0
      92.0
      96.0
     100.0
     104.0
     108.0
     112.0
     116.0
     120.0
     124.0
     128.0
     132.0
     136.0
     140.0
     144.0
     148.0
     152.0
     156.0
     160.0
     164.0
     168.0
     172.0
     176.0
     180.0
     184.0
     188.0
     192.0
     196.0
     200.0
     204.0
     208.0
     212.0
     216.0
     220.0
     224.0
     228.0
     232.0
     236.0
     240.0
     244.0
     248.0
     252.0
     256.0
     260.0
     264.0
     268.0
     272.0
     276.0
     280.0
     284.0
     288.0
     292.0
     296.0
     300.0
     304.0
     308.0
     312.0
     316.0
     320.0
     324.0
     328.0
     332.0
     336.0
     340.0
     344.0
     348.0
     352.0
     356.0
# background positions, in 2 theta (left/right)
      25.7000       26.3999
      25.7000       26.3999
      25.7000       26.3999
      25.7000       26.3999
      25.7000       26.3999
      25.7000       26.3999
      25.7000       26.3999
      25.7000       26.3999
      25.7000       26.3999
      25.7000       26.3999
      25.7000       26.3999
      25.7000       26.3999
      25.7000       26.3999
      25.7000       26.3999
      25.7000       26.3999
      25.7000       26.3999
      25.7000       26.3999
      25.7000       26.3999
      25.7000       26.3999
      25.7000       26.3999
      25.7000       26.3999
      25.7000       26.3999
      25.7000       26.3999
      25.7000       26.3999
      25.7000       26.3999
      25.7000       26.3999
      25.7000       26.3999
      25.7000       26.3999
      25.7000       26.3999
      25.7000       26.3999
      25.7000       26.3999
      25.7000       26.3999
      25.7000       26.3999
      25.7000       26.3999
      25.7000       26.3999
      25.7000       26.3999
      25.7000       26.3999
      25.7000       26.3999
      25.7000       26.3999
      25.7000       26.3999
      25.7000       26.3999
      25.7000       26.3999
      25.7000       26.3999
      25.7000       26.3999
      25.7000       26.3999
      25.7000       26.3999
      25.7000       26.3999
      25.7000       26.3999
      25.7000       26.3999
      25.7000       26.3999
      25.7000       26.3999
      25.7000       26.3999
      25.7000       26.3999
      25.7000       26.3999
      25.7000       26.3999
      25.7000       26.3999
      25.7000       26.3999
      25.7000       26.3999
      25.7000       26.3999
      25.7000       26.3999
      25.7000       26.3999
      25.7000       26.3999
      25.7000       26.3999
      25.7000       26.3999
      25.7000       26.3999
      25.7000       26.3999
      25.7000       26.3999
      25.7000       26.3999
      25.7000       26.3999
      25.7000       26.3999
      25.7000       26.3999
      25.7000       26.3999
      25.7000       26.3999
      25.7000       26.3999
      25.7000       26.3999
      25.7000       26.3999
      25.7000       26.3999
      25.7000       26.3999
      25.7000       26.3999
      25.7000       26.3999
      25.7000       26.3999
      25.7000       26.3999
      25.7000       26.3999
      25.7000       26.3999
      25.7000       26.3999
      25.7000       26.3999
      25.7000       26.3999
      25.7000       26.3999
      25.7000       26.3999
      25.7000       26.3999
# background coefficients
       4.3822       -0.9869
       4.4286       -1.0149
       4.4845       -0.9961
       4.5482       -0.9314
       4.6179       -0.8225
       4.6917       -0.6717
       4.7676       -0.4825
       4.8440       -0.2587
       4.9189       -0.0052
       4.9907        0.2730
       5.0578        0.5702
       5.1190        0.8803
       5.1730        1.1973
       5.2190        1.5149
       5.2561        1.8267
       5.2840        2.1267
       5.3024        2.4090
       5.3114        2.6681
       5.3114        2.8992
       5.3028        3.0977
       5.2866        3.2600
       5.2636        3.3832
       5.2352        3.4649
       5.2027        3.5040
       5.1676        3.4998
       5.1315        3.4529
       5.0961        3.3645
       5.0632        3.2366
       5.0343        3.0722
       5.0111        2.8749
       4.9953        2.6490
       4.9882        2.3994
       4.9911        2.1314
       5.0051        1.8507
       5.0312        1.5633
       5.0698        1.2753
       5.1216        0.9930
       5.1865        0.7222
       5.2644        0.4689
       5.3549        0.2386
       5.4573        0.0361
       5.5706       -0.1339
       5.6937       -0.2676
       5.8250       -0.3619
       5.9629       -0.4145
       6.1056       -0.4239
       6.2511       -0.3893
       6.3972       -0.3110
       6.5418       -0.1901
       6.6826       -0.0286
       6.8174        0.1709
       6.9441        0.4047
       7.0606        0.6687
       7.1648        0.9580
       7.2550        1.2673
       7.3295        1.5906
       7.3870        1.9221
       7.4263        2.2553
       7.4465        2.5838
       7.4470        2.9014
       7.4276        3.2020
       7.3884        3.4796
       7.3295        3.7289
       7.2518        3.9449
       7.1560        4.1233
       7.0436        4.2605
       6.9159        4.3536
       6.7747        4.4006
       6.6219        4.4004
       6.4596        4.3526
       6.2900        4.2578
       6.1155        4.1176
       5.9384        3.9344
       5.7611        3.7112
       5.5861        3.4520
       5.4155        3.1613
       5.2516        2.8444
       5.0965        2.5070
       4.9520        2.1551
       4.8197        1.7950
       4.7011        1.4332
       4.5973        1.0762
       4.5093        0.7305
       4.4376        0.4021
       4.3825        0.0970
       4.3441       -0.1795
       4.3220       -0.4224
       4.3157       -0.6278
       4.3244       -0.7919
       4.3470       -0.9123
# Peak positions (2 theta), intensity, half-width, weight Gauss/Lorentz (for pseudo-voigt),
# peak number        0
      26.0648        7.0945        0.0939        0.5000
      26.0675        7.1070        0.0939        0.5000
      26.0691        7.0796        0.0939        0.5000
      26.0695        7.0128        0.0939        0.5000
      26.0687        6.9080        0.0939        0.5000
      26.0667        6.7671        0.0939        0.5000
      26.0637        6.5928        0.0939        0.5000
      26.0597        6.3887        0.0939        0.5000
      26.0547        6.1587        0.0939        0.5000
      26.0490        5.9071        0.0939        0.5000
      26.0425        5.6390        0.0939        0.5000
      26.0355        5.3596        0.0939        0.5000
      26.0281        5.0743        0.0939        0.5000
      26.0204        4.7886        0.0939        0.5000
      26.0127        4.5081        0.0939        0.5000
      26.0050        4.2383        0.0939        0.5000
      25.9976        3.9844        0.0939        0.5000
      25.9905        3.7513        0.0939        0.5000
      25.9841        3.5437        0.0939        0.5000
      25.9783        3.3655        0.0939        0.5000
      25.9733        3.2202        0.0939        0.5000
      25.9692        3.1106        0.0939        0.5000
      25.9661        3.0389        0.0939        0.5000
      25.9640        3.0065        0.0939        0.5000
      25.9631        3.0139        0.0939        0.5000
      25.9633        3.0611        0.0939        0.5000
      25.9647        3.1472        0.0939        0.5000
      25.9672        3.2704        0.0939        0.5000
      25.9707        3.4283        0.0939        0.5000
      25.9753        3.6179        0.0939        0.5000
      25.9807        3.8356        0.0939        0.5000
      25.9870        4.0769        0.0939        0.5000
      25.9941        4.3374        0.0939        0.5000
      26.0016        4.6118        0.0939        0.5000
      26.0096        4.8949        0.0939        0.5000
      26.0179        5.1811        0.0939        0.5000
      26.0263        5.4649        0.0939        0.5000
      26.0346        5.7407        0.0939        0.5000
      26.0426        6.0032        0.0939        0.5000
      26.0503        6.2473        0.0939        0.5000
      26.0574        6.4682        0.0939        0.5000
      26.0639        6.6616        0.0939        0.5000
      26.0695        6.8237        0.0939        0.5000
      26.0742        6.9515        0.0939        0.5000
      26.0778        7.0423        0.0939        0.5000
      26.0803        7.0945        0.0939        0.5000
      26.0816        7.1070        0.0939        0.5000
      26.0817        7.0796        0.0939        0.5000
      26.0805        7.0128        0.0939        0.5000
      26.0782        6.9080        0.0939        0.5000
      26.0746        6.7671        0.0939        0.5000
      26.0700        6.5928        0.0939        0.5000
      26.0642        6.3887        0.0939        0.5000
      26.0576        6.1587        0.0939        0.5000
      26.0501        5.9071        0.0939        0.5000
      26.0419        5.6390        0.0939        0.5000
      26.0331        5.3596        0.0939        0.5000
      26.0240        5.0743        0.0939        0.5000
      26.0146        4.7886        0.0939        0.5000
      26.0052        4.5081        0.0939        0.5000
      25.9960        4.2383        0.0939        0.5000
      25.9870        3.9844        0.0939        0.5000
      25.9784        3.7513        0.0939        0.5000
      25.9705        3.5437        0.0939        0.5000
      25.9633        3.3655        0.0939        0.5000
      25.9570        3.2202        0.0939        0.5000
      25.9516        3.1106        0.0939        0.5000
      25.9474        3.0389        0.0939        0.5000
      25.9443        3.0065        0.0939        0.5000
      25.9424        3.0139        0.0939        0.5000
      25.9417        3.0611        0.0939        0.5000
      25.9423        3.1472        0.0939        0.5000
      25.9441        3.2704        0.0939        0.5000
      25.9471        3.4283        0.0939        0.5000
      25.9512        3.6179        0.0939        0.5000
      25.9564        3.8356        0.0939        0.5000
      25.9625        4.0769        0.0939        0.5000
      25.9694        4.3374        0.0939        0.5000
      25.9770        4.6118        0.0939        0.5000
      25.9852        4.8949        0.0939        0.5000
      25.9937        5.1811        0.0939        0.5000
      26.0024        5.4649        0.0939        0.5000
      26.0112        5.7407        0.0939        0.5000
      26.0199        6.0032        0.0939        0.5000
      26.0283        6.2473        0.0939        0.5000
      26.0363        6.4682        0.0939        0.5000
      26.0437        6.6616        0.0939        0.5000
      26.0503        6.8237        0.0939        0.5000
      26.0562        6.9515        0.0939        0.5000
      26.0610        7.0423        0.0939        0.5000
