# File version
1
# Peak profile (0: gauss, 1: pseudo-voigt, 2: lorentz)
       0
# Number of sub-patterns
       5
# Sub-patterns        0
# Number of peaks
       2
# Peak profile
       1
# Width factor
     15.00000
# Range in azimuth: nvalues, and values
        90
       0.0
       4.0
       8.0
      12.0
      16.0
      20.0
      24.0
      28.0
      32.0
      36.0
      40.0
      44.0
      48.0
      52.0
      56.0
      60.0
      64.0
      68.0
      72.0
      76.0
      80.0
      84.0
      88.0
      92.0
      96.0
     100.0
     104.0
     108.0
     112.0
     116.0
     120.0
     124.0
     128.0
     132.0
     136.0
     140.0
     144.0
     148.0
     152.0
     156.0
     160.0
     164.0
     168.0
     172.0
     176.0
     180.0
     184.0
     188.0
     192.0
     196.0
     200.0
     204.0
     208.0
     212.0
     216.0
     220.0
     224.0
     228.0
     232.0
     236.0
     240.0
     244.0
     248.0
     252.0
     256.0
     260.0
     264.0
     268.0
     272.0
     276.0
     280.0
     284.0
     288.0
     292.0
     296.0
     300.0
     304.0
     308.0
     312.0
     316.0
     320.0
     324.0
     328.0
     332.0
     336.0
     340.0
     344.0
     348.0
     352.0
     356.0
# background positions, in 2 theta (left/right)
      10.8000       11.6700
      10.8000       11.6700
      10.8000       11.6700
      10.8000       11.6700
      10.8000       11.6700
      10.8000       11.6700
      10.8000       11.6700
      10.8000       11.6700
      10.8000       11.6700
      10.8000       11.6700
      10.8000       11.6700
      10.8000       11.6700
      10.8000       11.6700
      10.8000       11.6700
      10.8000       11.6700
      10.8000       11.6700
      10.8000       11.6700
      10.8000       11.6700
      10.8000       11.6700
      10.8000       11.6700
      10.8000       11.6700
      10.8000       11.6700
      10.8000       11.6700
      10.8000       11.6700
      10.8000       11.6700
      10.8000       11.6700
      10.8000       11.6700
      10.8000       11.6700
      10.8000       11.6700
      10.8000       11.6700
      10.8000       11.6700
      10.8000       11.6700
      10.8000       11.6700
      10.8000       11.6700
      10.8000       11.6700
      10.8000       11.6700
      10.8000       11.6700
      10.8000       11.6700
      10.8000       11.6700
      10.8000       11.6700
      10.8000       11.6700
      10.8000       11.6700
      10.8000       11.6700
      10.8000       11.6700
      10.8000       11.6700
      10.8000       11.6700
      10.8000       11.6700
      10.8000       11.6700
      10.8000       11.6700
      10.8000       11.6700
      10.8000       11.6700
      10.8000       11.6700
      10.8000       11.6700
      10.8000       11.6700
      10.8000       11.6700
      10.8000       11.6700
      10.8000       11.6700
      10.8000       11.6700
      10.8000       11.6700
      10.8000       11.6700
      10.8000       11.6700
      10.8000       11.6700
      10.8000       11.6700
      10.8000       11.6700
      10.8000       11.6700
      10.8000       11.6700
      10.8000       11.6700
      10.8000       11.6700
      10.8000       11.6700
      10.8000       11.6700
      10.8000       11.6700
      10.8000       11.6700
      10.8000       11.6700
      10.8000       11.6700
      10.8000       11.6700
      10.8000       11.6700
      10.8000       11.6700
      10.8000       11.6700
      10.8000       11.6700
      10.8000       11.6700
      10.8000       11.6700
      10.8000       11.6700
      10.8000       11.6700
      10.8000       11.6700
      10.8000       11.6700
      10.8000       11.6700
      10.8000       11.6700
      10.8000       11.6700
      10.8000       11.6700
      10.8000       11.6700
# background coefficients
       4.3358        4.0928
       4.3358        4.0928
       4.3358        4.0928
       4.3358        4.0928
       4.3358        4.0928
       4.3358        4.0928
       4.3358        4.0928
       4.3358        4.0928
       4.3358        4.0928
       4.3358        4.0928
       4.3358        4.0928
       4.3358        4.0928
       4.3358        4.0928
       4.3358        4.0928
       4.3358        4.0928
       4.3358        4.0928
       4.3358        4.0928
       4.3358        4.0928
       4.3358        4.0928
       4.3358        4.0928
       4.3358        4.0928
       4.3358        4.0928
       4.3358        4.0928
       4.3358        4.0928
       4.3358        4.0928
       4.3358        4.0928
       4.3358        4.0928
       4.3358        4.0928
       4.3358        4.0928
       4.3358        4.0928
       4.3358        4.0928
       4.3358        4.0928
       4.3358        4.0928
       4.3358        4.0928
       4.3358        4.0928
       4.3358        4.0928
       4.3358        4.0928
       4.3358        4.0928
       4.3358        4.0928
       4.3358        4.0928
       4.3358        4.0928
       4.3358        4.0928
       4.3358        4.0928
       4.3358        4.0928
       4.3358        4.0928
       4.3358        4.0928
       4.3358        4.0928
       4.3358        4.0928
       4.3358        4.0928
       4.3358        4.0928
       4.3358        4.0928
       4.3358        4.0928
       4.3358        4.0928
       4.3358        4.0928
       4.3358        4.0928
       4.3358        4.0928
       4.3358        4.0928
       4.3358        4.0928
       4.3358        4.0928
       4.3358        4.0928
       4.3358        4.0928
       4.3358        4.0928
       4.3358        4.0928
       4.3358        4.0928
       4.3358        4.0928
       4.3358        4.0928
       4.3358        4.0928
       4.3358        4.0928
       4.3358        4.0928
       4.3358        4.0928
       4.3358        4.0928
       4.3358        4.0928
       4.3358        4.0928
       4.3358        4.0928
       4.3358        4.0928
       4.3358        4.0928
       4.3358        4.0928
       4.3358        4.0928
       4.3358        4.0928
       4.3358        4.0928
       4.3358        4.0928
       4.3358        4.0928
       4.3358        4.0928
       4.3358        4.0928
       4.3358        4.0928
       4.3358        4.0928
       4.3358        4.0928
       4.3358        4.0928
       4.3358        4.0928
       4.3358        4.0928
# Peak positions (2 theta), intensity, half-width, weight Gauss/Lorentz (for pseudo-voigt),
# peak number        0
      11.2017       44.9182        0.0361        0.1000
      11.2011       44.7340        0.0361        0.1000
      11.2005       44.6309        0.0361        0.1000
      11.1996       44.6109        0.0361        0.1000
      11.1987       44.6745        0.0361        0.1000
      11.1976       44.8204        0.0361        0.1000
      11.1965       45.0458        0.0361        0.1000
      11.1953       45.3463        0.0361        0.1000
      11.1940       45.7160        0.0361        0.1000
      11.1927       46.1477        0.0361        0.1000
      11.1914       46.6331        0.0361        0.1000
      11.1901       47.1626        0.0361        0.1000
      11.1889       47.7261        0.0361        0.1000
      11.1877       48.3124        0.0361        0.1000
      11.1867       48.9103        0.0361        0.1000
      11.1858       49.5080        0.0361        0.1000
      11.1850       50.0939        0.0361        0.1000
      11.1844       50.6567        0.0361        0.1000
      11.1840       51.1853        0.0361        0.1000
      11.1837       51.6696        0.0361        0.1000
      11.1837       52.0999        0.0361        0.1000
      11.1839       52.4681        0.0361        0.1000
      11.1842       52.7669        0.0361        0.1000
      11.1848       52.9905        0.0361        0.1000
      11.1855       53.1345        0.0361        0.1000
      11.1864       53.1962        0.0361        0.1000
      11.1874       53.1743        0.0361        0.1000
      11.1886       53.0693        0.0361        0.1000
      11.1899       52.8832        0.0361        0.1000
      11.1912       52.6196        0.0361        0.1000
      11.1926       52.2837        0.0361        0.1000
      11.1940       51.8820        0.0361        0.1000
      11.1954       51.4223        0.0361        0.1000
      11.1967       50.9136        0.0361        0.1000
      11.1980       50.3658        0.0361        0.1000
      11.1991       49.7895        0.0361        0.1000
      11.2001       49.1960        0.0361        0.1000
      11.2010       48.5967        0.0361        0.1000
      11.2017       48.0035        0.0361        0.1000
      11.2022       47.4277        0.0361        0.1000
      11.2025       46.8807        0.0361        0.1000
      11.2026       46.3730        0.0361        0.1000
      11.2025       45.9146        0.0361        0.1000
      11.2023       45.5143        0.0361        0.1000
      11.2018       45.1800        0.0361        0.1000
      11.2011       44.9182        0.0361        0.1000
      11.2003       44.7340        0.0361        0.1000
      11.1994       44.6309        0.0361        0.1000
      11.1983       44.6109        0.0361        0.1000
      11.1972       44.6745        0.0361        0.1000
      11.1959       44.8204        0.0361        0.1000
      11.1946       45.0458        0.0361        0.1000
      11.1933       45.3463        0.0361        0.1000
      11.1921       45.7160        0.0361        0.1000
      11.1908       46.1477        0.0361        0.1000
      11.1896       46.6331        0.0361        0.1000
      11.1885       47.1626        0.0361        0.1000
      11.1875       47.7261        0.0361        0.1000
      11.1866       48.3124        0.0361        0.1000
      11.1858       48.9103        0.0361        0.1000
      11.1852       49.5080        0.0361        0.1000
      11.1847       50.0939        0.0361        0.1000
      11.1844       50.6567        0.0361        0.1000
      11.1843       51.1853        0.0361        0.1000
      11.1843       51.6696        0.0361        0.1000
      11.1845       52.0999        0.0361        0.1000
      11.1848       52.4681        0.0361        0.1000
      11.1853       52.7669        0.0361        0.1000
      11.1859       52.9905        0.0361        0.1000
      11.1866       53.1345        0.0361        0.1000
      11.1875       53.1962        0.0361        0.1000
      11.1884       53.1743        0.0361        0.1000
      11.1895       53.0693        0.0361        0.1000
      11.1906       52.8832        0.0361        0.1000
      11.1917       52.6196        0.0361        0.1000
      11.1929       52.2837        0.0361        0.1000
      11.1940       51.8820        0.0361        0.1000
      11.1952       51.4223        0.0361        0.1000
      11.1963       50.9136        0.0361        0.1000
      11.1974       50.3658        0.0361        0.1000
      11.1984       49.7895        0.0361        0.1000
      11.1993       49.1960        0.0361        0.1000
      11.2001       48.5967        0.0361        0.1000
      11.2008       48.0035        0.0361        0.1000
      11.2014       47.4277        0.0361        0.1000
      11.2018       46.8807        0.0361        0.1000
      11.2021       46.3730        0.0361        0.1000
      11.2023       45.9146        0.0361        0.1000
      11.2022       45.5143        0.0361        0.1000
      11.2020       45.1800        0.0361        0.1000
# peak number        1
      11.5583      767.7450        0.0345        0.7036
      11.5589      643.9833        0.0345        0.7036
      11.5593      361.6124        0.0345        0.7036
      11.5595      165.1207        0.0345        0.7036
      11.5595       87.0605        0.0345        0.7036
      11.5593       51.2159        0.0345        0.7036
      11.5588       30.0237        0.0345        0.7036
      11.5581       22.3463        0.0345        0.7036
      11.5572       24.7513        0.0345        0.7036
      11.5561       23.6647        0.0345        0.7036
      11.5548       26.5108        0.0345        0.7036
      11.5533       54.1845        0.0345        0.7036
      11.5516       92.7561        0.0345        0.7036
      11.5499      135.8899        0.0345        0.7036
      11.5480      186.1593        0.0345        0.7036
      11.5462      203.5071        0.0345        0.7036
      11.5443      166.2646        0.0345        0.7036
      11.5424      105.8938        0.0345        0.7036
      11.5407       58.2072        0.0345        0.7036
      11.5391       45.1443        0.0345        0.7036
      11.5376       57.2189        0.0345        0.7036
      11.5364       68.7664        0.0345        0.7036
      11.5355       74.9035        0.0345        0.7036
      11.5348       70.4653        0.0345        0.7036
      11.5345       56.9943        0.0345        0.7036
      11.5345       56.3406        0.0345        0.7036
      11.5349       69.8650        0.0345        0.7036
      11.5356       89.9320        0.0345        0.7036
      11.5367      128.9639        0.0345        0.7036
      11.5382      184.7096        0.0345        0.7036
      11.5399      213.9229        0.0345        0.7036
      11.5420      173.6558        0.0345        0.7036
      11.5443       94.4083        0.0345        0.7036
      11.5469       45.1171        0.0345        0.7036
      11.5496       28.8068        0.0345        0.7036
      11.5524       18.4988        0.0345        0.7036
      11.5552       15.9889        0.0345        0.7036
      11.5581       16.9176        0.0345        0.7036
      11.5609       20.5994        0.0345        0.7036
      11.5635       31.6507        0.0345        0.7036
      11.5659       45.0822        0.0345        0.7036
      11.5681       85.7817        0.0345        0.7036
      11.5701      184.0337        0.0345        0.7036
      11.5716      360.9989        0.0345        0.7036
      11.5729      611.4303        0.0345        0.7036
      11.5737      767.7450        0.0345        0.7036
      11.5741      643.9833        0.0345        0.7036
      11.5742      361.6124        0.0345        0.7036
      11.5738      165.1207        0.0345        0.7036
      11.5730       87.0605        0.0345        0.7036
      11.5719       51.2159        0.0345        0.7036
      11.5705       30.0237        0.0345        0.7036
      11.5687       22.3463        0.0345        0.7036
      11.5667       24.7513        0.0345        0.7036
      11.5645       23.6647        0.0345        0.7036
      11.5622       26.5108        0.0345        0.7036
      11.5597       54.1845        0.0345        0.7036
      11.5572       92.7561        0.0345        0.7036
      11.5546      135.8899        0.0345        0.7036
      11.5521      186.1593        0.0345        0.7036
      11.5497      203.5071        0.0345        0.7036
      11.5475      166.2646        0.0345        0.7036
      11.5454      105.8938        0.0345        0.7036
      11.5434       58.2072        0.0345        0.7036
      11.5417       45.1443        0.0345        0.7036
      11.5403       57.2189        0.0345        0.7036
      11.5391       68.7664        0.0345        0.7036
      11.5381       74.9035        0.0345        0.7036
      11.5375       70.4653        0.0345        0.7036
      11.5371       56.9943        0.0345        0.7036
      11.5369       56.3406        0.0345        0.7036
      11.5370       69.8650        0.0345        0.7036
      11.5373       89.9320        0.0345        0.7036
      11.5378      128.9639        0.0345        0.7036
      11.5385      184.7096        0.0345        0.7036
      11.5394      213.9229        0.0345        0.7036
      11.5405      173.6558        0.0345        0.7036
      11.5416       94.4083        0.0345        0.7036
      11.5429       45.1171        0.0345        0.7036
      11.5443       28.8068        0.0345        0.7036
      11.5457       18.4988        0.0345        0.7036
      11.5472       15.9889        0.0345        0.7036
      11.5487       16.9176        0.0345        0.7036
      11.5501       20.5994        0.0345        0.7036
      11.5516       31.6507        0.0345        0.7036
      11.5530       45.0822        0.0345        0.7036
      11.5543       85.7817        0.0345        0.7036
      11.5555      184.0337        0.0345        0.7036
      11.5566      360.9989        0.0345        0.7036
      11.5575      611.4303        0.0345        0.7036
# Sub-patterns        1
# Number of peaks
       1
# Peak profile
       1
# Width factor
     15.00000
# Range in azimuth: nvalues, and values
        90
       0.0
       4.0
       8.0
      12.0
      16.0
      20.0
      24.0
      28.0
      32.0
      36.0
      40.0
      44.0
      48.0
      52.0
      56.0
      60.0
      64.0
      68.0
      72.0
      76.0
      80.0
      84.0
      88.0
      92.0
      96.0
     100.0
     104.0
     108.0
     112.0
     116.0
     120.0
     124.0
     128.0
     132.0
     136.0
     140.0
     144.0
     148.0
     152.0
     156.0
     160.0
     164.0
     168.0
     172.0
     176.0
     180.0
     184.0
     188.0
     192.0
     196.0
     200.0
     204.0
     208.0
     212.0
     216.0
     220.0
     224.0
     228.0
     232.0
     236.0
     240.0
     244.0
     248.0
     252.0
     256.0
     260.0
     264.0
     268.0
     272.0
     276.0
     280.0
     284.0
     288.0
     292.0
     296.0
     300.0
     304.0
     308.0
     312.0
     316.0
     320.0
     324.0
     328.0
     332.0
     336.0
     340.0
     344.0
     348.0
     352.0
     356.0
# background positions, in 2 theta (left/right)
      16.1000       16.6000
      16.1000       16.6000
      16.1000       16.6000
      16.1000       16.6000
      16.1000       16.6000
      16.1000       16.6000
      16.1000       16.6000
      16.1000       16.6000
      16.1000       16.6000
      16.1000       16.6000
      16.1000       16.6000
      16.1000       16.6000
      16.1000       16.6000
      16.1000       16.6000
      16.1000       16.6000
      16.1000       16.6000
      16.1000       16.6000
      16.1000       16.6000
      16.1000       16.6000
      16.1000       16.6000
      16.1000       16.6000
      16.1000       16.6000
      16.1000       16.6000
      16.1000       16.6000
      16.1000       16.6000
      16.1000       16.6000
      16.1000       16.6000
      16.1000       16.6000
      16.1000       16.6000
      16.1000       16.6000
      16.1000       16.6000
      16.1000       16.6000
      16.1000       16.6000
      16.1000       16.6000
      16.1000       16.6000
      16.1000       16.6000
      16.1000       16.6000
      16.1000       16.6000
      16.1000       16.6000
      16.1000       16.6000
      16.1000       16.6000
      16.1000       16.6000
      16.1000       16.6000
      16.1000       16.6000
      16.1000       16.6000
      16.1000       16.6000
      16.1000       16.6000
      16.1000       16.6000
      16.1000       16.6000
      16.1000       16.6000
      16.1000       16.6000
      16.1000       16.6000
      16.1000       16.6000
      16.1000       16.6000
      16.1000       16.6000
      16.1000       16.6000
      16.1000       16.6000
      16.1000       16.6000
      16.1000       16.6000
      16.1000       16.6000
      16.1000       16.6000
      16.1000       16.6000
      16.1000       16.6000
      16.1000       16.6000
      16.1000       16.6000
      16.1000       16.6000
      16.1000       16.6000
      16.1000       16.6000
      16.1000       16.6000
      16.1000       16.6000
      16.1000       16.6000
      16.1000       16.6000
      16.1000       16.6000
      16.1000       16.6000
      16.1000       16.6000
      16.1000       16.6000
      16.1000       16.6000
      16.1000       16.6000
      16.1000       16.6000
      16.1000       16.6000
      16.1000       16.6000
      16.1000       16.6000
      16.1000       16.6000
      16.1000       16.6000
      16.1000       16.6000
      16.1000       16.6000
      16.1000       16.6000
      16.1000       16.6000
      16.1000       16.6000
      16.1000       16.6000
# background coefficients
       5.0949        0.1347
       5.0949        0.1347
       5.0949        0.1347
       5.0949        0.1347
       5.0949        0.1347
       5.0949        0.1347
       5.0949        0.1347
       5.0949        0.1347
       5.0949        0.1347
       5.0949        0.1347
       5.0949        0.1347
       5.0949        0.1347
       5.0949        0.1347
       5.0949        0.1347
       5.0949        0.1347
       5.0949        0.1347
       5.0949        0.1347
       5.0949        0.1347
       5.0949        0.1347
       5.0949        0.1347
       5.0949        0.1347
       5.0949        0.1347
       5.0949        0.1347
       5.0949        0.1347
       5.0949        0.1347
       5.0949        0.1347
       5.0949        0.1347
       5.0949        0.1347
       5.0949        0.1347
       5.0949        0.1347
       5.0949        0.1347
       5.0949        0.1347
       5.0949        0.1347
       5.0949        0.1347
       5.0949        0.1347
       5.0949        0.1347
       5.0949        0.1347
       5.0949        0.1347
       5.0949        0.1347
       5.0949        0.1347
       5.0949        0.1347
       5.0949        0.1347
       5.0949        0.1347
       5.0949        0.1347
       5.0949        0.1347
       5.0949        0.1347
       5.0949        0.1347
       5.0949        0.1347
       5.0949        0.1347
       5.0949        0.1347
       5.0949        0.1347
       5.0949        0.1347
       5.0949        0.1347
       5.0949        0.1347
       5.0949        0.1347
       5.0949        0.1347
       5.0949        0.1347
       5.0949        0.1347
       5.0949        0.1347
       5.0949        0.1347
       5.0949        0.1347
       5.0949        0.1347
       5.0949        0.1347
       5.0949        0.1347
       5.0949        0.1347
       5.0949        0.1347
       5.0949        0.1347
       5.0949        0.1347
       5.0949        0.1347
       5.0949        0.1347
       5.0949        0.1347
       5.0949        0.1347
       5.0949        0.1347
       5.0949        0.1347
       5.0949        0.1347
       5.0949        0.1347
       5.0949        0.1347
       5.0949        0.1347
       5.0949        0.1347
       5.0949        0.1347
       5.0949        0.1347
       5.0949        0.1347
       5.0949        0.1347
       5.0949        0.1347
       5.0949        0.1347
       5.0949        0.1347
       5.0949        0.1347
       5.0949        0.1347
       5.0949        0.1347
       5.0949        0.1347
# Peak positions (2 theta), intensity, half-width, weight Gauss/Lorentz (for pseudo-voigt),
# peak number        0
      16.3815        2.5531        0.0568        0.5555
      16.3836        2.7945        0.0568        0.5555
      16.3852        2.9445        0.0568        0.5555
      16.3862        3.3966        0.0568        0.5555
      16.3865        4.1782        0.0568        0.5555
      16.3862        4.9745        0.0568        0.5555
      16.3853        5.7864        0.0568        0.5555
      16.3837        7.2397        0.0568        0.5555
      16.3815        9.9110        0.0568        0.5555
      16.3787       13.3127        0.0568        0.5555
      16.3755       15.8246        0.0568        0.5555
      16.3719       15.9391        0.0568        0.5555
      16.3679       13.6495        0.0568        0.5555
      16.3638       10.4650        0.0568        0.5555
      16.3596        7.9444        0.0568        0.5555
      16.3554        6.3133        0.0568        0.5555
      16.3513        4.7284        0.0568        0.5555
      16.3474        2.9176        0.0568        0.5555
      16.3439        2.2406        0.0568        0.5555
      16.3408        4.6679        0.0568        0.5555
      16.3381       10.4534        0.0568        0.5555
      16.3361       16.9634        0.0568        0.5555
      16.3346       20.2379        0.0568        0.5555
      16.3337       18.1366        0.0568        0.5555
      16.3334       12.1566        0.0568        0.5555
      16.3337        6.1520        0.0568        0.5555
      16.3347        3.1583        0.0568        0.5555
      16.3362        3.3133        0.0568        0.5555
      16.3381        4.6522        0.0568        0.5555
      16.3405        5.6303        0.0568        0.5555
      16.3433        6.6353        0.0568        0.5555
      16.3463        9.0496        0.0568        0.5555
      16.3496       13.1204        0.0568        0.5555
      16.3529       17.0980        0.0568        0.5555
      16.3563       18.6290        0.0568        0.5555
      16.3596       16.9257        0.0568        0.5555
      16.3629       13.4462        0.0568        0.5555
      16.3660       10.4449        0.0568        0.5555
      16.3688        8.9638        0.0568        0.5555
      16.3714        8.2663        0.0568        0.5555
      16.3737        7.0631        0.0568        0.5555
      16.3757        5.0291        0.0568        0.5555
      16.3773        3.0272        0.0568        0.5555
      16.3787        2.0311        0.0568        0.5555
      16.3796        2.1097        0.0568        0.5555
      16.3803        2.5531        0.0568        0.5555
      16.3807        2.7945        0.0568        0.5555
      16.3808        2.9445        0.0568        0.5555
      16.3806        3.3966        0.0568        0.5555
      16.3802        4.1782        0.0568        0.5555
      16.3796        4.9745        0.0568        0.5555
      16.3789        5.7864        0.0568        0.5555
      16.3779        7.2397        0.0568        0.5555
      16.3768        9.9110        0.0568        0.5555
      16.3755       13.3127        0.0568        0.5555
      16.3741       15.8246        0.0568        0.5555
      16.3726       15.9391        0.0568        0.5555
      16.3709       13.6495        0.0568        0.5555
      16.3692       10.4650        0.0568        0.5555
      16.3673        7.9444        0.0568        0.5555
      16.3654        6.3133        0.0568        0.5555
      16.3633        4.7284        0.0568        0.5555
      16.3612        2.9176        0.0568        0.5555
      16.3590        2.2406        0.0568        0.5555
      16.3568        4.6679        0.0568        0.5555
      16.3546       10.4534        0.0568        0.5555
      16.3525       16.9634        0.0568        0.5555
      16.3504       20.2379        0.0568        0.5555
      16.3484       18.1366        0.0568        0.5555
      16.3466       12.1566        0.0568        0.5555
      16.3450        6.1520        0.0568        0.5555
      16.3437        3.1583        0.0568        0.5555
      16.3427        3.3133        0.0568        0.5555
      16.3420        4.6522        0.0568        0.5555
      16.3418        5.6303        0.0568        0.5555
      16.3419        6.6353        0.0568        0.5555
      16.3426        9.0496        0.0568        0.5555
      16.3436       13.1204        0.0568        0.5555
      16.3452       17.0980        0.0568        0.5555
      16.3471       18.6290        0.0568        0.5555
      16.3495       16.9257        0.0568        0.5555
      16.3523       13.4462        0.0568        0.5555
      16.3553       10.4449        0.0568        0.5555
      16.3587        8.9638        0.0568        0.5555
      16.3621        8.2663        0.0568        0.5555
      16.3657        7.0631        0.0568        0.5555
      16.3693        5.0291        0.0568        0.5555
      16.3727        3.0272        0.0568        0.5555
      16.3760        2.0311        0.0568        0.5555
      16.3789        2.1097        0.0568        0.5555
# Sub-patterns        2
# Number of peaks
       1
# Peak profile
       1
# Width factor
     15.00000
# Range in azimuth: nvalues, and values
        90
       0.0
       4.0
       8.0
      12.0
      16.0
      20.0
      24.0
      28.0
      32.0
      36.0
      40.0
      44.0
      48.0
      52.0
      56.0
      60.0
      64.0
      68.0
      72.0
      76.0
      80.0
      84.0
      88.0
      92.0
      96.0
     100.0
     104.0
     108.0
     112.0
     116.0
     120.0
     124.0
     128.0
     132.0
     136.0
     140.0
     144.0
     148.0
     152.0
     156.0
     160.0
     164.0
     168.0
     172.0
     176.0
     180.0
     184.0
     188.0
     192.0
     196.0
     200.0
     204.0
     208.0
     212.0
     216.0
     220.0
     224.0
     228.0
     232.0
     236.0
     240.0
     244.0
     248.0
     252.0
     256.0
     260.0
     264.0
     268.0
     272.0
     276.0
     280.0
     284.0
     288.0
     292.0
     296.0
     300.0
     304.0
     308.0
     312.0
     316.0
     320.0
     324.0
     328.0
     332.0
     336.0
     340.0
     344.0
     348.0
     352.0
     356.0
# background positions, in 2 theta (left/right)
      19.8000       20.2700
      19.8000       20.2700
      19.8000       20.2700
      19.8000       20.2700
      19.8000       20.2700
      19.8000       20.2700
      19.8000       20.2700
      19.8000       20.2700
      19.8000       20.2700
      19.8000       20.2700
      19.8000       20.2700
      19.8000       20.2700
      19.8000       20.2700
      19.8000       20.2700
      19.8000       20.2700
      19.8000       20.2700
      19.8000       20.2700
      19.8000       20.2700
      19.8000       20.2700
      19.8000       20.2700
      19.8000       20.2700
      19.8000       20.2700
      19.8000       20.2700
      19.8000       20.2700
      19.8000       20.2700
      19.8000       20.2700
      19.8000       20.2700
      19.8000       20.2700
      19.8000       20.2700
      19.8000       20.2700
      19.8000       20.2700
      19.8000       20.2700
      19.8000       20.2700
      19.8000       20.2700
      19.8000       20.2700
      19.8000       20.2700
      19.8000       20.2700
      19.8000       20.2700
      19.8000       20.2700
      19.8000       20.2700
      19.8000       20.2700
      19.8000       20.2700
      19.8000       20.2700
      19.8000       20.2700
      19.8000       20.2700
      19.8000       20.2700
      19.8000       20.2700
      19.8000       20.2700
      19.8000       20.2700
      19.8000       20.2700
      19.8000       20.2700
      19.8000       20.2700
      19.8000       20.2700
      19.8000       20.2700
      19.8000       20.2700
      19.8000       20.2700
      19.8000       20.2700
      19.8000       20.2700
      19.8000       20.2700
      19.8000       20.2700
      19.8000       20.2700
      19.8000       20.2700
      19.8000       20.2700
      19.8000       20.2700
      19.8000       20.2700
      19.8000       20.2700
      19.8000       20.2700
      19.8000       20.2700
      19.8000       20.2700
      19.8000       20.2700
      19.8000       20.2700
      19.8000       20.2700
      19.8000       20.2700
      19.8000       20.2700
      19.8000       20.2700
      19.8000       20.2700
      19.8000       20.2700
      19.8000       20.2700
      19.8000       20.2700
      19.8000       20.2700
      19.8000       20.2700
      19.8000       20.2700
      19.8000       20.2700
      19.8000       20.2700
      19.8000       20.2700
      19.8000       20.2700
      19.8000       20.2700
      19.8000       20.2700
      19.8000       20.2700
      19.8000       20.2700
# background coefficients
       5.0936        0.9048
       5.0936        0.9048
       5.0936        0.9048
       5.0936        0.9048
       5.0936        0.9048
       5.0936        0.9048
       5.0936        0.9048
       5.0936        0.9048
       5.0936        0.9048
       5.0936        0.9048
       5.0936        0.9048
       5.0936        0.9048
       5.0936        0.9048
       5.0936        0.9048
       5.0936        0.9048
       5.0936        0.9048
       5.0936        0.9048
       5.0936        0.9048
       5.0936        0.9048
       5.0936        0.9048
       5.0936        0.9048
       5.0936        0.9048
       5.0936        0.9048
       5.0936        0.9048
       5.0936        0.9048
       5.0936        0.9048
       5.0936        0.9048
       5.0936        0.9048
       5.0936        0.9048
       5.0936        0.9048
       5.0936        0.9048
       5.0936        0.9048
       5.0936        0.9048
       5.0936        0.9048
       5.0936        0.9048
       5.0936        0.9048
       5.0936        0.9048
       5.0936        0.9048
       5.0936        0.9048
       5.0936        0.9048
       5.0936        0.9048
       5.0936        0.9048
       5.0936        0.9048
       5.0936        0.9048
       5.0936        0.9048
       5.0936        0.9048
       5.0936        0.9048
       5.0936        0.9048
       5.0936        0.9048
       5.0936        0.9048
       5.0936        0.9048
       5.0936        0.9048
       5.0936        0.9048
       5.0936        0.9048
       5.0936        0.9048
       5.0936        0.9048
       5.0936        0.9048
       5.0936        0.9048
       5.0936        0.9048
       5.0936        0.9048
       5.0936        0.9048
       5.0936        0.9048
       5.0936        0.9048
       5.0936        0.9048
       5.0936        0.9048
       5.0936        0.9048
       5.0936        0.9048
       5.0936        0.9048
       5.0936        0.9048
       5.0936        0.9048
       5.0936        0.9048
       5.0936        0.9048
       5.0936        0.9048
       5.0936        0.9048
       5.0936        0.9048
       5.0936        0.9048
       5.0936        0.9048
       5.0936        0.9048
       5.0936        0.9048
       5.0936        0.9048
       5.0936        0.9048
       5.0936        0.9048
       5.0936        0.9048
       5.0936        0.9048
       5.0936        0.9048
       5.0936        0.9048
       5.0936        0.9048
       5.0936        0.9048
       5.0936        0.9048
       5.0936        0.9048
# Peak positions (2 theta), intensity, half-width, weight Gauss/Lorentz (for pseudo-voigt),
# peak number        0
      20.0939        3.9273        0.0530        0.7500
      20.0955        2.8656        0.0530        0.7824
      20.0966        1.8701        0.0530        0.8092
      20.0970        4.8548        0.0530        0.8301
      20.0967       13.0901        0.0530        0.8445
      20.0958       23.4713        0.0530        0.8522
      20.0943       30.6508        0.0530        0.8531
      20.0921       31.1302        0.0530        0.8471
      20.0894       25.7874        0.0530        0.8343
      20.0862       18.8678        0.0530        0.8150
      20.0826       14.5835        0.0530        0.7896
      20.0787       14.2880        0.0530        0.7586
      20.0745       16.3045        0.0530        0.7225
      20.0702       18.0165        0.0530        0.6821
      20.0659       18.1088        0.0530        0.6381
      20.0616       17.1928        0.0530        0.5915
      20.0574       16.7527        0.0530        0.5431
      20.0536       17.7009        0.0530        0.4938
      20.0500       19.7870        0.0530        0.4447
      20.0469       22.0667        0.0530        0.3966
      20.0443       23.7330        0.0530        0.3506
      20.0423       24.5503        0.0530        0.3074
      20.0408       24.6921        0.0530        0.2680
      20.0399       24.3290        0.0530        0.2332
      20.0397       23.4197        0.0530        0.2035
      20.0401       21.8836        0.0530        0.1796
      20.0411       19.9639        0.0530        0.1619
      20.0426       18.3776        0.0530        0.1508
      20.0448       17.9566        0.0530        0.1465
      20.0474       18.9003        0.0530        0.1491
      20.0504       20.2594        0.0530        0.1585
      20.0538       20.3473        0.0530        0.1746
      20.0574       18.1254        0.0530        0.1969
      20.0613       14.5788        0.0530        0.2252
      20.0653       12.6609        0.0530        0.2589
      20.0694       15.2824        0.0530        0.2972
      20.0734       22.5965        0.0530        0.3395
      20.0773       30.9230        0.0530        0.3849
      20.0811       34.7281        0.0530        0.4325
      20.0846       30.5619        0.0530        0.4815
      20.0879       19.8746        0.0530        0.5308
      20.0909        8.1928        0.0530        0.5795
      20.0934        1.0839        0.0530        0.6267
      20.0956        0.1697        0.0530        0.6714
      20.0974        2.5318        0.0530        0.7128
      20.0987        3.9273        0.0530        0.7500
      20.0995        2.8656        0.0530        0.7824
      20.1000        1.8701        0.0530        0.8092
      20.0999        4.8548        0.0530        0.8301
      20.0994       13.0901        0.0530        0.8445
      20.0985       23.4713        0.0530        0.8522
      20.0972       30.6508        0.0530        0.8531
      20.0955       31.1302        0.0530        0.8471
      20.0934       25.7874        0.0530        0.8343
      20.0910       18.8678        0.0530        0.8150
      20.0883       14.5835        0.0530        0.7896
      20.0854       14.2880        0.0530        0.7586
      20.0823       16.3045        0.0530        0.7225
      20.0789       18.0165        0.0530        0.6821
      20.0755       18.1088        0.0530        0.6381
      20.0720       17.1928        0.0530        0.5915
      20.0685       16.7527        0.0530        0.5431
      20.0650       17.7009        0.0530        0.4938
      20.0616       19.7870        0.0530        0.4447
      20.0583       22.0667        0.0530        0.3966
      20.0552       23.7330        0.0530        0.3506
      20.0524       24.5503        0.0530        0.3074
      20.0499       24.6921        0.0530        0.2680
      20.0478       24.3290        0.0530        0.2332
      20.0461       23.4197        0.0530        0.2035
      20.0448       21.8836        0.0530        0.1796
      20.0440       19.9639        0.0530        0.1619
      20.0437       18.3776        0.0530        0.1508
      20.0439       17.9566        0.0530        0.1465
      20.0446       18.9003        0.0530        0.1491
      20.0459       20.2594        0.0530        0.1585
      20.0477       20.3473        0.0530        0.1746
      20.0500       18.1254        0.0530        0.1969
      20.0527       14.5788        0.0530        0.2252
      20.0558       12.6609        0.0530        0.2589
      20.0592       15.2824        0.0530        0.2972
      20.0629       22.5965        0.0530        0.3395
      20.0668       30.9230        0.0530        0.3849
      20.0707       34.7281        0.0530        0.4325
      20.0747       30.5619        0.0530        0.4815
      20.0786       19.8746        0.0530        0.5308
      20.0824        8.1928        0.0530        0.5795
      20.0859        1.0839        0.0530        0.6267
      20.0890        0.1697        0.0530        0.6714
      20.0917        2.5318        0.0530        0.7128
# Sub-patterns        3
# Number of peaks
       1
# Peak profile
       1
# Width factor
     15.00000
# Range in azimuth: nvalues, and values
        90
       0.0
       4.0
       8.0
      12.0
      16.0
      20.0
      24.0
      28.0
      32.0
      36.0
      40.0
      44.0
      48.0
      52.0
      56.0
      60.0
      64.0
      68.0
      72.0
      76.0
      80.0
      84.0
      88.0
      92.0
      96.0
     100.0
     104.0
     108.0
     112.0
     116.0
     120.0
     124.0
     128.0
     132.0
     136.0
     140.0
     144.0
     148.0
     152.0
     156.0
     160.0
     164.0
     168.0
     172.0
     176.0
     180.0
     184.0
     188.0
     192.0
     196.0
     200.0
     204.0
     208.0
     212.0
     216.0
     220.0
     224.0
     228.0
     232.0
     236.0
     240.0
     244.0
     248.0
     252.0
     256.0
     260.0
     264.0
     268.0
     272.0
     276.0
     280.0
     284.0
     288.0
     292.0
     296.0
     300.0
     304.0
     308.0
     312.0
     316.0
     320.0
     324.0
     328.0
     332.0
     336.0
     340.0
     344.0
     348.0
     352.0
     356.0
# background positions, in 2 theta (left/right)
      23.1001       23.5000
      23.1001       23.5000
      23.1001       23.5000
      23.1001       23.5000
      23.1001       23.5000
      23.1001       23.5000
      23.1001       23.5000
      23.1001       23.5000
      23.1001       23.5000
      23.1001       23.5000
      23.1001       23.5000
      23.1001       23.5000
      23.1001       23.5000
      23.1001       23.5000
      23.1001       23.5000
      23.1001       23.5000
      23.1001       23.5000
      23.1001       23.5000
      23.1001       23.5000
      23.1001       23.5000
      23.1001       23.5000
      23.1001       23.5000
      23.1001       23.5000
      23.1001       23.5000
      23.1001       23.5000
      23.1001       23.5000
      23.1001       23.5000
      23.1001       23.5000
      23.1001       23.5000
      23.1001       23.5000
      23.1001       23.5000
      23.1001       23.5000
      23.1001       23.5000
      23.1001       23.5000
      23.1001       23.5000
      23.1001       23.5000
      23.1001       23.5000
      23.1001       23.5000
      23.1001       23.5000
      23.1001       23.5000
      23.1001       23.5000
      23.1001       23.5000
      23.1001       23.5000
      23.1001       23.5000
      23.1001       23.5000
      23.1001       23.5000
      23.1001       23.5000
      23.1001       23.5000
      23.1001       23.5000
      23.1001       23.5000
      23.1001       23.5000
      23.1001       23.5000
      23.1001       23.5000
      23.1001       23.5000
      23.1001       23.5000
      23.1001       23.5000
      23.1001       23.5000
      23.1001       23.5000
      23.1001       23.5000
      23.1001       23.5000
      23.1001       23.5000
      23.1001       23.5000
      23.1001       23.5000
      23.1001       23.5000
      23.1001       23.5000
      23.1001       23.5000
      23.1001       23.5000
      23.1001       23.5000
      23.1001       23.5000
      23.1001       23.5000
      23.1001       23.5000
      23.1001       23.5000
      23.1001       23.5000
      23.1001       23.5000
      23.1001       23.5000
      23.1001       23.5000
      23.1001       23.5000
      23.1001       23.5000
      23.1001       23.5000
      23.1001       23.5000
      23.1001       23.5000
      23.1001       23.5000
      23.1001       23.5000
      23.1001       23.5000
      23.1001       23.5000
      23.1001       23.5000
      23.1001       23.5000
      23.1001       23.5000
      23.1001       23.5000
      23.1001       23.5000
# background coefficients
       6.0882       -4.0321
       6.0697       -3.9435
       6.0612       -3.8533
       6.0627       -3.7631
       6.0740       -3.6743
       6.0949       -3.5885
       6.1246       -3.5071
       6.1626       -3.4315
       6.2079       -3.3630
       6.2595       -3.3025
       6.3163       -3.2512
       6.3769       -3.2098
       6.4402       -3.1789
       6.5046       -3.1589
       6.5688       -3.1501
       6.6314       -3.1525
       6.6911       -3.1659
       6.7466       -3.1899
       6.7967       -3.2238
       6.8403       -3.2670
       6.8764       -3.3186
       6.9042       -3.3773
       6.9231       -3.4421
       6.9327       -3.5116
       6.9327       -3.5844
       6.9229       -3.6592
       6.9037       -3.7344
       6.8752       -3.8086
       6.8380       -3.8805
       6.7927       -3.9486
       6.7404       -4.0118
       6.6819       -4.0688
       6.6184       -4.1187
       6.5512       -4.1606
       6.4815       -4.1938
       6.4108       -4.2178
       6.3406       -4.2323
       6.2721       -4.2372
       6.2069       -4.2326
       6.1462       -4.2187
       6.0913       -4.1960
       6.0434       -4.1652
       6.0034       -4.1271
       5.9724       -4.0826
       5.9510       -4.0328
       5.9397       -3.9789
       5.9389       -3.9223
       5.9487       -3.8642
       5.9690       -3.8059
       5.9997       -3.7490
       6.0402       -3.6946
       6.0899       -3.6442
       6.1480       -3.5988
       6.2135       -3.5597
       6.2853       -3.5277
       6.3621       -3.5038
       6.4425       -3.4885
       6.5253       -3.4824
       6.6088       -3.4857
       6.6915       -3.4987
       6.7722       -3.5211
       6.8492       -3.5527
       6.9212       -3.5930
       6.9869       -3.6414
       7.0452       -3.6969
       7.0950       -3.7587
       7.1356       -3.8255
       7.1660       -3.8962
       7.1860       -3.9694
       7.1951       -4.0438
       7.1932       -4.1178
       7.1805       -4.1900
       7.1571       -4.2590
       7.1238       -4.3235
       7.0810       -4.3820
       7.0296       -4.4335
       6.9707       -4.4768
       6.9054       -4.5110
       6.8350       -4.5352
       6.7608       -4.5490
       6.6842       -4.5518
       6.6066       -4.5435
       6.5296       -4.5241
       6.4545       -4.4938
       6.3828       -4.4529
       6.3157       -4.4021
       6.2545       -4.3421
       6.2003       -4.2740
       6.1540       -4.1988
       6.1165       -4.1177
# Peak positions (2 theta), intensity, half-width, weight Gauss/Lorentz (for pseudo-voigt),
# peak number        0
      23.2447        7.8910        0.0561        0.6222
      23.2472        7.5272        0.0561        0.6222
      23.2491        6.3772        0.0561        0.6222
      23.2503        4.5670        0.0561        0.6222
      23.2508        2.6708        0.0561        0.6222
      23.2505        1.4236        0.0561        0.6222
      23.2495        1.0945        0.0561        0.6222
      23.2478        1.2117        0.0561        0.6222
      23.2454        1.0482        0.0561        0.6222
      23.2424        0.4580        0.0561        0.6222
      23.2389        0.1839        0.0561        0.6222
      23.2349        1.2205        0.0561        0.6222
      23.2305        3.7770        0.0561        0.6222
      23.2258        6.8459        0.0561        0.6222
      23.2209        8.8458        0.0561        0.6222
      23.2159        8.7856        0.0561        0.6222
      23.2109        6.9336        0.0561        0.6222
      23.2060        4.4852        0.0561        0.6222
      23.2014        2.6449        0.0561        0.6222
      23.1970        1.9466        0.0561        0.6222
      23.1931        2.2260        0.0561        0.6222
      23.1897        2.9908        0.0561        0.6222
      23.1868        3.7234        0.0561        0.6222
      23.1845        3.9947        0.0561        0.6222
      23.1830        3.5992        0.0561        0.6222
      23.1821        2.7971        0.0561        0.6222
      23.1820        2.3696        0.0561        0.6222
      23.1826        3.1600        0.0561        0.6222
      23.1840        5.2908        0.0561        0.6222
      23.1861        7.7637        0.0561        0.6222
      23.1889        9.0000        0.0561        0.6222
      23.1924        8.0238        0.0561        0.6222
      23.1964        5.2833        0.0561        0.6222
      23.2010        2.3212        0.0561        0.6222
      23.2059        0.5445        0.0561        0.6222
      23.2113        0.1972        0.0561        0.6222
      23.2168        0.4366        0.0561        0.6222
      23.2225        0.3461        0.0561        0.6222
      23.2283       -0.1511        0.0561        0.6222
      23.2339       -0.3208        0.0561        0.6222
      23.2394        0.5573        0.0561        0.6222
      23.2446        2.4650        0.0561        0.6222
      23.2494        4.6977        0.0561        0.6222
      23.2537        6.5001        0.0561        0.6222
      23.2574        7.5538        0.0561        0.6222
      23.2605        7.8910        0.0561        0.6222
      23.2629        7.5272        0.0561        0.6222
      23.2646        6.3772        0.0561        0.6222
      23.2655        4.5670        0.0561        0.6222
      23.2655        2.6708        0.0561        0.6222
      23.2648        1.4236        0.0561        0.6222
      23.2632        1.0945        0.0561        0.6222
      23.2609        1.2117        0.0561        0.6222
      23.2579        1.0482        0.0561        0.6222
      23.2542        0.4580        0.0561        0.6222
      23.2499        0.1839        0.0561        0.6222
      23.2450        1.2205        0.0561        0.6222
      23.2398        3.7770        0.0561        0.6222
      23.2341        6.8459        0.0561        0.6222
      23.2283        8.8458        0.0561        0.6222
      23.2223        8.7856        0.0561        0.6222
      23.2163        6.9336        0.0561        0.6222
      23.2104        4.4852        0.0561        0.6222
      23.2046        2.6449        0.0561        0.6222
      23.1992        1.9466        0.0561        0.6222
      23.1942        2.2260        0.0561        0.6222
      23.1896        2.9908        0.0561        0.6222
      23.1856        3.7234        0.0561        0.6222
      23.1823        3.9947        0.0561        0.6222
      23.1796        3.5992        0.0561        0.6222
      23.1777        2.7971        0.0561        0.6222
      23.1765        2.3696        0.0561        0.6222
      23.1761        3.1600        0.0561        0.6222
      23.1765        5.2908        0.0561        0.6222
      23.1777        7.7637        0.0561        0.6222
      23.1796        9.0000        0.0561        0.6222
      23.1821        8.0238        0.0561        0.6222
      23.1853        5.2833        0.0561        0.6222
      23.1891        2.3212        0.0561        0.6222
      23.1934        0.5445        0.0561        0.6222
      23.1981        0.1972        0.0561        0.6222
      23.2030        0.4366        0.0561        0.6222
      23.2082        0.3461        0.0561        0.6222
      23.2135       -0.1511        0.0561        0.6222
      23.2188       -0.3208        0.0561        0.6222
      23.2239        0.5573        0.0561        0.6222
      23.2289        2.4650        0.0561        0.6222
      23.2335        4.6977        0.0561        0.6222
      23.2378        6.5001        0.0561        0.6222
      23.2415        7.5538        0.0561        0.6222
# Sub-patterns        4
# Number of peaks
       1
# Peak profile
       1
# Width factor
     15.00000
# Range in azimuth: nvalues, and values
        90
       0.0
       4.0
       8.0
      12.0
      16.0
      20.0
      24.0
      28.0
      32.0
      36.0
      40.0
      44.0
      48.0
      52.0
      56.0
      60.0
      64.0
      68.0
      72.0
      76.0
      80.0
      84.0
      88.0
      92.0
      96.0
     100.0
     104.0
     108.0
     112.0
     116.0
     120.0
     124.0
     128.0
     132.0
     136.0
     140.0
     144.0
     148.0
     152.0
     156.0
     160.0
     164.0
     168.0
     172.0
     176.0
     180.0
     184.0
     188.0
     192.0
     196.0
     200.0
     204.0
     208.0
     212.0
     216.0
     220.0
     224.0
     228.0
     232.0
     236.0
     240.0
     244.0
     248.0
     252.0
     256.0
     260.0
     264.0
     268.0
     272.0
     276.0
     280.0
     284.0
     288.0
     292.0
     296.0
     300.0
     304.0
     308.0
     312.0
     316.0
     320.0
     324.0
     328.0
     332.0
     336.0
     340.0
     344.0
     348.0
     352.0
     356.0
# background positions, in 2 theta (left/right)
      25.7000       26.3999
      25.7000       26.3999
      25.7000       26.3999
      25.7000       26.3999
      25.7000       26.3999
      25.7000       26.3999
      25.7000       26.3999
      25.7000       26.3999
      25.7000       26.3999
      25.7000       26.3999
      25.7000       26.3999
      25.7000       26.3999
      25.7000       26.3999
      25.7000       26.3999
      25.7000       26.3999
      25.7000       26.3999
      25.7000       26.3999
      25.7000       26.3999
      25.7000       26.3999
      25.7000       26.3999
      25.7000       26.3999
      25.7000       26.3999
      25.7000       26.3999
      25.7000       26.3999
      25.7000       26.3999
      25.7000       26.3999
      25.7000       26.3999
      25.7000       26.3999
      25.7000       26.3999
      25.7000       26.3999
      25.7000       26.3999
      25.7000       26.3999
      25.7000       26.3999
      25.7000       26.3999
      25.7000       26.3999
      25.7000       26.3999
      25.7000       26.3999
      25.7000       26.3999
      25.7000       26.3999
      25.7000       26.3999
      25.7000       26.3999
      25.7000       26.3999
      25.7000       26.3999
      25.7000       26.3999
      25.7000       26.3999
      25.7000       26.3999
      25.7000       26.3999
      25.7000       26.3999
      25.7000       26.3999
      25.7000       26.3999
      25.7000       26.3999
      25.7000       26.3999
      25.7000       26.3999
      25.7000       26.3999
      25.7000       26.3999
      25.7000       26.3999
      25.7000       26.3999
      25.7000       26.3999
      25.7000       26.3999
      25.7000       26.3999
      25.7000       26.3999
      25.7000       26.3999
      25.7000       26.3999
      25.7000       26.3999
      25.7000       26.3999
      25.7000       26.3999
      25.7000       26.3999
      25.7000       26.3999
      25.7000       26.3999
      25.7000       26.3999
      25.7000       26.3999
      25.7000       26.3999
      25.7000       26.3999
      25.7000       26.3999
      25.7000       26.3999
      25.7000       26.3999
      25.7000       26.3999
      25.7000       26.3999
      25.7000       26.3999
      25.7000       26.3999
      25.7000       26.3999
      25.7000       26.3999
      25.7000       26.3999
      25.7000       26.3999
      25.7000       26.3999
      25.7000       26.3999
      25.7000       26.3999
      25.7000       26.3999
      25.7000       26.3999
      25.7000       26.3999
# background coefficients
       4.4427       -1.2875
       4.4806       -1.3086
       4.5250       -1.2772
       4.5744       -1.1948
       4.6273       -1.0634
       4.6821       -0.8861
       4.7374       -0.6669
       4.7918       -0.4105
       4.8439       -0.1223
       4.8926        0.1919
       4.9367        0.5255
       4.9754        0.8719
       5.0080        1.2242
       5.0339        1.5754
       5.0529        1.9187
       5.0648        2.2473
       5.0698        2.5549
       5.0681        2.8357
       5.0604        3.0844
       5.0473        3.2963
       5.0297        3.4678
       5.0086        3.5957
       4.9852        3.6781
       4.9608        3.7137
       4.9367        3.7023
       4.9142        3.6448
       4.8947        3.5428
       4.8797        3.3991
       4.8704        3.2169
       4.8680        3.0007
       4.8737        2.7552
       4.8884        2.4862
       4.9131        2.1996
       4.9482        1.9017
       4.9942        1.5993
       5.0514        1.2989
       5.1198        1.0074
       5.1990        0.7312
       5.2887        0.4766
       5.3880        0.2493
       5.4963        0.0546
       5.6121       -0.1029
       5.7344       -0.2193
       5.8616       -0.2916
       5.9920       -0.3176
       6.1240       -0.2961
       6.2557       -0.2269
       6.3853       -0.1105
       6.5107        0.0513
       6.6302        0.2560
       6.7419        0.5001
       6.8441        0.7794
       6.9351        1.0888
       7.0133        1.4228
       7.0776        1.7752
       7.1266        2.1393
       7.1596        2.5083
       7.1757        2.8753
       7.1747        3.2331
       7.1563        3.5749
       7.1206        3.8940
       7.0679        4.1841
       6.9989        4.4394
       6.9144        4.6548
       6.8155        4.8258
       6.7034        4.9489
       6.5798        5.0212
       6.4462        5.0410
       6.3044        5.0073
       6.1563        4.9205
       6.0040        4.7816
       5.8494        4.5926
       5.6946        4.3567
       5.5415        4.0778
       5.3921        3.7606
       5.2482        3.4106
       5.1115        3.0337
       4.9836        2.6365
       4.8659        2.2260
       4.7595        1.8094
       4.6654        1.3938
       4.5843        0.9866
       4.5167        0.5948
       4.4628        0.2252
       4.4228       -0.1158
       4.3962       -0.4224
       4.3827       -0.6895
       4.3816       -0.9127
       4.3919       -1.0883
       4.4127       -1.2139
# Peak positions (2 theta), intensity, half-width, weight Gauss/Lorentz (for pseudo-voigt),
# peak number        0
      26.0696        6.6057        0.0975        0.5000
      26.0718        6.6483        0.0975        0.5000
      26.0727        6.6601        0.0975        0.5000
      26.0725        6.6411        0.0975        0.5000
      26.0711        6.5915        0.0975        0.5000
      26.0686        6.5123        0.0975        0.5000
      26.0650        6.4051        0.0975        0.5000
      26.0604        6.2719        0.0975        0.5000
      26.0549        6.1154        0.0975        0.5000
      26.0487        5.9386        0.0975        0.5000
      26.0418        5.7449        0.0975        0.5000
      26.0343        5.5380        0.0975        0.5000
      26.0266        5.3222        0.0975        0.5000
      26.0187        5.1014        0.0975        0.5000
      26.0107        4.8801        0.0975        0.5000
      26.0029        4.6625        0.0975        0.5000
      25.9954        4.4528        0.0975        0.5000
      25.9883        4.2552        0.0975        0.5000
      25.9819        4.0735        0.0975        0.5000
      25.9762        3.9113        0.0975        0.5000
      25.9713        3.7716        0.0975        0.5000
      25.9673        3.6572        0.0975        0.5000
      25.9644        3.5704        0.0975        0.5000
      25.9626        3.5128        0.0975        0.5000
      25.9619        3.4855        0.0975        0.5000
      25.9623        3.4891        0.0975        0.5000
      25.9639        3.5235        0.0975        0.5000
      25.9666        3.5880        0.0975        0.5000
      25.9703        3.6815        0.0975        0.5000
      25.9750        3.8020        0.0975        0.5000
      25.9807        3.9472        0.0975        0.5000
      25.9871        4.1142        0.0975        0.5000
      25.9941        4.3000        0.0975        0.5000
      26.0017        4.5007        0.0975        0.5000
      26.0097        4.7126        0.0975        0.5000
      26.0178        4.9314        0.0975        0.5000
      26.0260        5.1530        0.0975        0.5000
      26.0341        5.3730        0.0975        0.5000
      26.0420        5.5872        0.0975        0.5000
      26.0494        5.7913        0.0975        0.5000
      26.0562        5.9814        0.0975        0.5000
      26.0623        6.1538        0.0975        0.5000
      26.0675        6.3051        0.0975        0.5000
      26.0717        6.4325        0.0975        0.5000
      26.0749        6.5333        0.0975        0.5000
      26.0770        6.6057        0.0975        0.5000
      26.0779        6.6483        0.0975        0.5000
      26.0776        6.6601        0.0975        0.5000
      26.0761        6.6411        0.0975        0.5000
      26.0734        6.5915        0.0975        0.5000
      26.0695        6.5123        0.0975        0.5000
      26.0646        6.4051        0.0975        0.5000
      26.0587        6.2719        0.0975        0.5000
      26.0519        6.1154        0.0975        0.5000
      26.0443        5.9386        0.0975        0.5000
      26.0362        5.7449        0.0975        0.5000
      26.0275        5.5380        0.0975        0.5000
      26.0186        5.3222        0.0975        0.5000
      26.0095        5.1014        0.0975        0.5000
      26.0004        4.8801        0.0975        0.5000
      25.9915        4.6625        0.0975        0.5000
      25.9830        4.4528        0.0975        0.5000
      25.9750        4.2552        0.0975        0.5000
      25.9676        4.0735        0.0975        0.5000
      25.9611        3.9113        0.0975        0.5000
      25.9554        3.7716        0.0975        0.5000
      25.9508        3.6572        0.0975        0.5000
      25.9473        3.5704        0.0975        0.5000
      25.9450        3.5128        0.0975        0.5000
      25.9439        3.4855        0.0975        0.5000
      25.9440        3.4891        0.0975        0.5000
      25.9453        3.5235        0.0975        0.5000
      25.9478        3.5880        0.0975        0.5000
      25.9515        3.6815        0.0975        0.5000
      25.9562        3.8020        0.0975        0.5000
      25.9619        3.9472        0.0975        0.5000
      25.9685        4.1142        0.0975        0.5000
      25.9759        4.3000        0.0975        0.5000
      25.9839        4.5007        0.0975        0.5000
      25.9923        4.7126        0.0975        0.5000
      26.0010        4.9314        0.0975        0.5000
      26.0098        5.1530        0.0975        0.5000
      26.0187        5.3730        0.0975        0.5000
      26.0273        5.5872        0.0975        0.5000
      26.0355        5.7913        0.0975        0.5000
      26.0433        5.9814        0.0975        0.5000
      26.0503        6.1538        0.0975        0.5000
      26.0566        6.3051        0.0975        0.5000
      26.0620        6.4325        0.0975        0.5000
      26.0664        6.5333        0.0975        0.5000
