# File version
1
# Peak profile (0: gauss, 1: pseudo-voigt, 2: lorentz)
       0
# Number of sub-patterns
       5
# Sub-patterns        0
# Number of peaks
       2
# Peak profile
       1
# Width factor
     15.00000
# Range in azimuth: nvalues, and values
        90
       0.0
       4.0
       8.0
      12.0
      16.0
      20.0
      24.0
      28.0
      32.0
      36.0
      40.0
      44.0
      48.0
      52.0
      56.0
      60.0
      64.0
      68.0
      72.0
      76.0
      80.0
      84.0
      88.0
      92.0
      96.0
     100.0
     104.0
     108.0
     112.0
     116.0
     120.0
     124.0
     128.0
     132.0
     136.0
     140.0
     144.0
     148.0
     152.0
     156.0
     160.0
     164.0
     168.0
     172.0
     176.0
     180.0
     184.0
     188.0
     192.0
     196.0
     200.0
     204.0
     208.0
     212.0
     216.0
     220.0
     224.0
     228.0
     232.0
     236.0
     240.0
     244.0
     248.0
     252.0
     256.0
     260.0
     264.0
     268.0
     272.0
     276.0
     280.0
     284.0
     288.0
     292.0
     296.0
     300.0
     304.0
     308.0
     312.0
     316.0
     320.0
     324.0
     328.0
     332.0
     336.0
     340.0
     344.0
     348.0
     352.0
     356.0
# background positions, in 2 theta (left/right)
      10.8000       11.6700
      10.8000       11.6700
      10.8000       11.6700
      10.8000       11.6700
      10.8000       11.6700
      10.8000       11.6700
      10.8000       11.6700
      10.8000       11.6700
      10.8000       11.6700
      10.8000       11.6700
      10.8000       11.6700
      10.8000       11.6700
      10.8000       11.6700
      10.8000       11.6700
      10.8000       11.6700
      10.8000       11.6700
      10.8000       11.6700
      10.8000       11.6700
      10.8000       11.6700
      10.8000       11.6700
      10.8000       11.6700
      10.8000       11.6700
      10.8000       11.6700
      10.8000       11.6700
      10.8000       11.6700
      10.8000       11.6700
      10.8000       11.6700
      10.8000       11.6700
      10.8000       11.6700
      10.8000       11.6700
      10.8000       11.6700
      10.8000       11.6700
      10.8000       11.6700
      10.8000       11.6700
      10.8000       11.6700
      10.8000       11.6700
      10.8000       11.6700
      10.8000       11.6700
      10.8000       11.6700
      10.8000       11.6700
      10.8000       11.6700
      10.8000       11.6700
      10.8000       11.6700
      10.8000       11.6700
      10.8000       11.6700
      10.8000       11.6700
      10.8000       11.6700
      10.8000       11.6700
      10.8000       11.6700
      10.8000       11.6700
      10.8000       11.6700
      10.8000       11.6700
      10.8000       11.6700
      10.8000       11.6700
      10.8000       11.6700
      10.8000       11.6700
      10.8000       11.6700
      10.8000       11.6700
      10.8000       11.6700
      10.8000       11.6700
      10.8000       11.6700
      10.8000       11.6700
      10.8000       11.6700
      10.8000       11.6700
      10.8000       11.6700
      10.8000       11.6700
      10.8000       11.6700
      10.8000       11.6700
      10.8000       11.6700
      10.8000       11.6700
      10.8000       11.6700
      10.8000       11.6700
      10.8000       11.6700
      10.8000       11.6700
      10.8000       11.6700
      10.8000       11.6700
      10.8000       11.6700
      10.8000       11.6700
      10.8000       11.6700
      10.8000       11.6700
      10.8000       11.6700
      10.8000       11.6700
      10.8000       11.6700
      10.8000       11.6700
      10.8000       11.6700
      10.8000       11.6700
      10.8000       11.6700
      10.8000       11.6700
      10.8000       11.6700
      10.8000       11.6700
# background coefficients
       4.3094        3.8000
       4.3094        3.8000
       4.3094        3.8000
       4.3094        3.8000
       4.3094        3.8000
       4.3094        3.8000
       4.3094        3.8000
       4.3094        3.8000
       4.3094        3.8000
       4.3094        3.8000
       4.3094        3.8000
       4.3094        3.8000
       4.3094        3.8000
       4.3094        3.8000
       4.3094        3.8000
       4.3094        3.8000
       4.3094        3.8000
       4.3094        3.8000
       4.3094        3.8000
       4.3094        3.8000
       4.3094        3.8000
       4.3094        3.8000
       4.3094        3.8000
       4.3094        3.8000
       4.3094        3.8000
       4.3094        3.8000
       4.3094        3.8000
       4.3094        3.8000
       4.3094        3.8000
       4.3094        3.8000
       4.3094        3.8000
       4.3094        3.8000
       4.3094        3.8000
       4.3094        3.8000
       4.3094        3.8000
       4.3094        3.8000
       4.3094        3.8000
       4.3094        3.8000
       4.3094        3.8000
       4.3094        3.8000
       4.3094        3.8000
       4.3094        3.8000
       4.3094        3.8000
       4.3094        3.8000
       4.3094        3.8000
       4.3094        3.8000
       4.3094        3.8000
       4.3094        3.8000
       4.3094        3.8000
       4.3094        3.8000
       4.3094        3.8000
       4.3094        3.8000
       4.3094        3.8000
       4.3094        3.8000
       4.3094        3.8000
       4.3094        3.8000
       4.3094        3.8000
       4.3094        3.8000
       4.3094        3.8000
       4.3094        3.8000
       4.3094        3.8000
       4.3094        3.8000
       4.3094        3.8000
       4.3094        3.8000
       4.3094        3.8000
       4.3094        3.8000
       4.3094        3.8000
       4.3094        3.8000
       4.3094        3.8000
       4.3094        3.8000
       4.3094        3.8000
       4.3094        3.8000
       4.3094        3.8000
       4.3094        3.8000
       4.3094        3.8000
       4.3094        3.8000
       4.3094        3.8000
       4.3094        3.8000
       4.3094        3.8000
       4.3094        3.8000
       4.3094        3.8000
       4.3094        3.8000
       4.3094        3.8000
       4.3094        3.8000
       4.3094        3.8000
       4.3094        3.8000
       4.3094        3.8000
       4.3094        3.8000
       4.3094        3.8000
       4.3094        3.8000
# Peak positions (2 theta), intensity, half-width, weight Gauss/Lorentz (for pseudo-voigt),
# peak number        0
      11.2021       43.6621        0.0368        0.1000
      11.2014       43.5086        0.0368        0.1000
      11.2007       43.4471        0.0368        0.1000
      11.1997       43.4787        0.0368        0.1000
      11.1987       43.6028        0.0368        0.1000
      11.1976       43.8171        0.0368        0.1000
      11.1963       44.1173        0.0368        0.1000
      11.1951       44.4976        0.0368        0.1000
      11.1937       44.9506        0.0368        0.1000
      11.1924       45.4675        0.0368        0.1000
      11.1911       46.0382        0.0368        0.1000
      11.1898       46.6517        0.0368        0.1000
      11.1886       47.2959        0.0368        0.1000
      11.1875       47.9584        0.0368        0.1000
      11.1865       48.6262        0.0368        0.1000
      11.1856       49.2863        0.0368        0.1000
      11.1849       49.9260        0.0368        0.1000
      11.1843       50.5327        0.0368        0.1000
      11.1839       51.0946        0.0368        0.1000
      11.1837       51.6008        0.0368        0.1000
      11.1837       52.0415        0.0368        0.1000
      11.1839       52.4081        0.0368        0.1000
      11.1843       52.6934        0.0368        0.1000
      11.1849       52.8918        0.0368        0.1000
      11.1857       52.9996        0.0368        0.1000
      11.1866       53.0146        0.0368        0.1000
      11.1877       52.9366        0.0368        0.1000
      11.1889       52.7670        0.0368        0.1000
      11.1902       52.5091        0.0368        0.1000
      11.1915       52.1680        0.0368        0.1000
      11.1929       51.7503        0.0368        0.1000
      11.1944       51.2642        0.0368        0.1000
      11.1958       50.7190        0.0368        0.1000
      11.1972       50.1255        0.0368        0.1000
      11.1985       49.4951        0.0368        0.1000
      11.1997       48.8402        0.0368        0.1000
      11.2007       48.1734        0.0368        0.1000
      11.2017       47.5078        0.0368        0.1000
      11.2025       46.8564        0.0368        0.1000
      11.2031       46.2317        0.0368        0.1000
      11.2035       45.6459        0.0368        0.1000
      11.2037       45.1105        0.0368        0.1000
      11.2037       44.6359        0.0368        0.1000
      11.2035       44.2313        0.0368        0.1000
      11.2031       43.9046        0.0368        0.1000
      11.2025       43.6621        0.0368        0.1000
      11.2017       43.5086        0.0368        0.1000
      11.2008       43.4471        0.0368        0.1000
      11.1998       43.4787        0.0368        0.1000
      11.1986       43.6028        0.0368        0.1000
      11.1974       43.8171        0.0368        0.1000
      11.1960       44.1173        0.0368        0.1000
      11.1947       44.4976        0.0368        0.1000
      11.1933       44.9506        0.0368        0.1000
      11.1920       45.4675        0.0368        0.1000
      11.1907       46.0382        0.0368        0.1000
      11.1895       46.6517        0.0368        0.1000
      11.1884       47.2959        0.0368        0.1000
      11.1874       47.9584        0.0368        0.1000
      11.1865       48.6262        0.0368        0.1000
      11.1858       49.2863        0.0368        0.1000
      11.1852       49.9260        0.0368        0.1000
      11.1848       50.5327        0.0368        0.1000
      11.1846       51.0946        0.0368        0.1000
      11.1846       51.6008        0.0368        0.1000
      11.1847       52.0415        0.0368        0.1000
      11.1850       52.4081        0.0368        0.1000
      11.1855       52.6934        0.0368        0.1000
      11.1862       52.8918        0.0368        0.1000
      11.1869       52.9996        0.0368        0.1000
      11.1878       53.0146        0.0368        0.1000
      11.1889       52.9366        0.0368        0.1000
      11.1900       52.7670        0.0368        0.1000
      11.1911       52.5091        0.0368        0.1000
      11.1924       52.1680        0.0368        0.1000
      11.1936       51.7503        0.0368        0.1000
      11.1949       51.2642        0.0368        0.1000
      11.1961       50.7190        0.0368        0.1000
      11.1973       50.1255        0.0368        0.1000
      11.1984       49.4951        0.0368        0.1000
      11.1994       48.8402        0.0368        0.1000
      11.2003       48.1734        0.0368        0.1000
      11.2012       47.5078        0.0368        0.1000
      11.2018       46.8564        0.0368        0.1000
      11.2024       46.2317        0.0368        0.1000
      11.2027       45.6459        0.0368        0.1000
      11.2029       45.1105        0.0368        0.1000
      11.2030       44.6359        0.0368        0.1000
      11.2028       44.2313        0.0368        0.1000
      11.2025       43.9046        0.0368        0.1000
# peak number        1
      11.5595      768.1061        0.0342        0.6891
      11.5601      651.1574        0.0342        0.6891
      11.5605      362.6047        0.0342        0.6891
      11.5606      164.8455        0.0342        0.6891
      11.5605       89.8210        0.0342        0.6891
      11.5602       52.0628        0.0342        0.6891
      11.5597       28.2414        0.0342        0.6891
      11.5589       22.7530        0.0342        0.6891
      11.5579       26.4766        0.0342        0.6891
      11.5567       23.3224        0.0342        0.6891
      11.5553       27.5582        0.0342        0.6891
      11.5537       57.4555        0.0342        0.6891
      11.5520       94.1851        0.0342        0.6891
      11.5502      137.4279        0.0342        0.6891
      11.5484      189.0453        0.0342        0.6891
      11.5465      205.6754        0.0342        0.6891
      11.5446      169.4192        0.0342        0.6891
      11.5428      108.2074        0.0342        0.6891
      11.5410       57.2814        0.0342        0.6891
      11.5395       44.9400        0.0342        0.6891
      11.5381       57.3303        0.0342        0.6891
      11.5369       67.4748        0.0342        0.6891
      11.5360       75.6169        0.0342        0.6891
      11.5354       72.2019        0.0342        0.6891
      11.5351       57.4943        0.0342        0.6891
      11.5352       56.8204        0.0342        0.6891
      11.5356       69.8361        0.0342        0.6891
      11.5363       90.1619        0.0342        0.6891
      11.5374      130.5263        0.0342        0.6891
      11.5389      186.1148        0.0342        0.6891
      11.5406      215.5648        0.0342        0.6891
      11.5427      175.8671        0.0342        0.6891
      11.5450       96.8344        0.0342        0.6891
      11.5475       47.2174        0.0342        0.6891
      11.5502       28.1049        0.0342        0.6891
      11.5529       17.6407        0.0342        0.6891
      11.5558       17.9606        0.0342        0.6891
      11.5586       17.5244        0.0342        0.6891
      11.5613       20.8268        0.0342        0.6891
      11.5640       33.1431        0.0342        0.6891
      11.5664       44.4383        0.0342        0.6891
      11.5687       89.8136        0.0342        0.6891
      11.5706      192.4244        0.0342        0.6891
      11.5722      356.5179        0.0342        0.6891
      11.5735      599.2080        0.0342        0.6891
      11.5744      768.1061        0.0342        0.6891
      11.5749      651.1574        0.0342        0.6891
      11.5750      362.6047        0.0342        0.6891
      11.5747      164.8455        0.0342        0.6891
      11.5741       89.8210        0.0342        0.6891
      11.5730       52.0628        0.0342        0.6891
      11.5716       28.2414        0.0342        0.6891
      11.5699       22.7530        0.0342        0.6891
      11.5680       26.4766        0.0342        0.6891
      11.5658       23.3224        0.0342        0.6891
      11.5634       27.5582        0.0342        0.6891
      11.5609       57.4555        0.0342        0.6891
      11.5584       94.1851        0.0342        0.6891
      11.5558      137.4279        0.0342        0.6891
      11.5532      189.0453        0.0342        0.6891
      11.5507      205.6754        0.0342        0.6891
      11.5483      169.4192        0.0342        0.6891
      11.5461      108.2074        0.0342        0.6891
      11.5441       57.2814        0.0342        0.6891
      11.5423       44.9400        0.0342        0.6891
      11.5407       57.3303        0.0342        0.6891
      11.5394       67.4748        0.0342        0.6891
      11.5383       75.6169        0.0342        0.6891
      11.5375       72.2019        0.0342        0.6891
      11.5370       57.4943        0.0342        0.6891
      11.5368       56.8204        0.0342        0.6891
      11.5369       69.8361        0.0342        0.6891
      11.5372       90.1619        0.0342        0.6891
      11.5377      130.5263        0.0342        0.6891
      11.5385      186.1148        0.0342        0.6891
      11.5394      215.5648        0.0342        0.6891
      11.5405      175.8671        0.0342        0.6891
      11.5418       96.8344        0.0342        0.6891
      11.5432       47.2174        0.0342        0.6891
      11.5447       28.1049        0.0342        0.6891
      11.5463       17.6407        0.0342        0.6891
      11.5478       17.9606        0.0342        0.6891
      11.5494       17.5244        0.0342        0.6891
      11.5510       20.8268        0.0342        0.6891
      11.5526       33.1431        0.0342        0.6891
      11.5540       44.4383        0.0342        0.6891
      11.5554       89.8136        0.0342        0.6891
      11.5567      192.4244        0.0342        0.6891
      11.5578      356.5179        0.0342        0.6891
      11.5587      599.2080        0.0342        0.6891
# Sub-patterns        1
# Number of peaks
       1
# Peak profile
       1
# Width factor
     15.00000
# Range in azimuth: nvalues, and values
        90
       0.0
       4.0
       8.0
      12.0
      16.0
      20.0
      24.0
      28.0
      32.0
      36.0
      40.0
      44.0
      48.0
      52.0
      56.0
      60.0
      64.0
      68.0
      72.0
      76.0
      80.0
      84.0
      88.0
      92.0
      96.0
     100.0
     104.0
     108.0
     112.0
     116.0
     120.0
     124.0
     128.0
     132.0
     136.0
     140.0
     144.0
     148.0
     152.0
     156.0
     160.0
     164.0
     168.0
     172.0
     176.0
     180.0
     184.0
     188.0
     192.0
     196.0
     200.0
     204.0
     208.0
     212.0
     216.0
     220.0
     224.0
     228.0
     232.0
     236.0
     240.0
     244.0
     248.0
     252.0
     256.0
     260.0
     264.0
     268.0
     272.0
     276.0
     280.0
     284.0
     288.0
     292.0
     296.0
     300.0
     304.0
     308.0
     312.0
     316.0
     320.0
     324.0
     328.0
     332.0
     336.0
     340.0
     344.0
     348.0
     352.0
     356.0
# background positions, in 2 theta (left/right)
      16.1000       16.6000
      16.1000       16.6000
      16.1000       16.6000
      16.1000       16.6000
      16.1000       16.6000
      16.1000       16.6000
      16.1000       16.6000
      16.1000       16.6000
      16.1000       16.6000
      16.1000       16.6000
      16.1000       16.6000
      16.1000       16.6000
      16.1000       16.6000
      16.1000       16.6000
      16.1000       16.6000
      16.1000       16.6000
      16.1000       16.6000
      16.1000       16.6000
      16.1000       16.6000
      16.1000       16.6000
      16.1000       16.6000
      16.1000       16.6000
      16.1000       16.6000
      16.1000       16.6000
      16.1000       16.6000
      16.1000       16.6000
      16.1000       16.6000
      16.1000       16.6000
      16.1000       16.6000
      16.1000       16.6000
      16.1000       16.6000
      16.1000       16.6000
      16.1000       16.6000
      16.1000       16.6000
      16.1000       16.6000
      16.1000       16.6000
      16.1000       16.6000
      16.1000       16.6000
      16.1000       16.6000
      16.1000       16.6000
      16.1000       16.6000
      16.1000       16.6000
      16.1000       16.6000
      16.1000       16.6000
      16.1000       16.6000
      16.1000       16.6000
      16.1000       16.6000
      16.1000       16.6000
      16.1000       16.6000
      16.1000       16.6000
      16.1000       16.6000
      16.1000       16.6000
      16.1000       16.6000
      16.1000       16.6000
      16.1000       16.6000
      16.1000       16.6000
      16.1000       16.6000
      16.1000       16.6000
      16.1000       16.6000
      16.1000       16.6000
      16.1000       16.6000
      16.1000       16.6000
      16.1000       16.6000
      16.1000       16.6000
      16.1000       16.6000
      16.1000       16.6000
      16.1000       16.6000
      16.1000       16.6000
      16.1000       16.6000
      16.1000       16.6000
      16.1000       16.6000
      16.1000       16.6000
      16.1000       16.6000
      16.1000       16.6000
      16.1000       16.6000
      16.1000       16.6000
      16.1000       16.6000
      16.1000       16.6000
      16.1000       16.6000
      16.1000       16.6000
      16.1000       16.6000
      16.1000       16.6000
      16.1000       16.6000
      16.1000       16.6000
      16.1000       16.6000
      16.1000       16.6000
      16.1000       16.6000
      16.1000       16.6000
      16.1000       16.6000
      16.1000       16.6000
# background coefficients
       5.1473       -0.0612
       5.1473       -0.0612
       5.1473       -0.0612
       5.1473       -0.0612
       5.1473       -0.0612
       5.1473       -0.0612
       5.1473       -0.0612
       5.1473       -0.0612
       5.1473       -0.0612
       5.1473       -0.0612
       5.1473       -0.0612
       5.1473       -0.0612
       5.1473       -0.0612
       5.1473       -0.0612
       5.1473       -0.0612
       5.1473       -0.0612
       5.1473       -0.0612
       5.1473       -0.0612
       5.1473       -0.0612
       5.1473       -0.0612
       5.1473       -0.0612
       5.1473       -0.0612
       5.1473       -0.0612
       5.1473       -0.0612
       5.1473       -0.0612
       5.1473       -0.0612
       5.1473       -0.0612
       5.1473       -0.0612
       5.1473       -0.0612
       5.1473       -0.0612
       5.1473       -0.0612
       5.1473       -0.0612
       5.1473       -0.0612
       5.1473       -0.0612
       5.1473       -0.0612
       5.1473       -0.0612
       5.1473       -0.0612
       5.1473       -0.0612
       5.1473       -0.0612
       5.1473       -0.0612
       5.1473       -0.0612
       5.1473       -0.0612
       5.1473       -0.0612
       5.1473       -0.0612
       5.1473       -0.0612
       5.1473       -0.0612
       5.1473       -0.0612
       5.1473       -0.0612
       5.1473       -0.0612
       5.1473       -0.0612
       5.1473       -0.0612
       5.1473       -0.0612
       5.1473       -0.0612
       5.1473       -0.0612
       5.1473       -0.0612
       5.1473       -0.0612
       5.1473       -0.0612
       5.1473       -0.0612
       5.1473       -0.0612
       5.1473       -0.0612
       5.1473       -0.0612
       5.1473       -0.0612
       5.1473       -0.0612
       5.1473       -0.0612
       5.1473       -0.0612
       5.1473       -0.0612
       5.1473       -0.0612
       5.1473       -0.0612
       5.1473       -0.0612
       5.1473       -0.0612
       5.1473       -0.0612
       5.1473       -0.0612
       5.1473       -0.0612
       5.1473       -0.0612
       5.1473       -0.0612
       5.1473       -0.0612
       5.1473       -0.0612
       5.1473       -0.0612
       5.1473       -0.0612
       5.1473       -0.0612
       5.1473       -0.0612
       5.1473       -0.0612
       5.1473       -0.0612
       5.1473       -0.0612
       5.1473       -0.0612
       5.1473       -0.0612
       5.1473       -0.0612
       5.1473       -0.0612
       5.1473       -0.0612
       5.1473       -0.0612
# Peak positions (2 theta), intensity, half-width, weight Gauss/Lorentz (for pseudo-voigt),
# peak number        0
      16.3842        2.7688        0.0571        0.5225
      16.3864        2.7641        0.0571        0.5225
      16.3880        2.5072        0.0571        0.5225
      16.3890        2.7052        0.0571        0.5225
      16.3893        3.6094        0.0571        0.5225
      16.3889        4.8139        0.0571        0.5225
      16.3879        5.9893        0.0571        0.5225
      16.3861        7.5099        0.0571        0.5225
      16.3838       10.0111        0.0571        0.5225
      16.3808       13.2764        0.0571        0.5225
      16.3774       15.8536        0.0571        0.5225
      16.3735       16.1154        0.0571        0.5225
      16.3693       13.8034        0.0571        0.5225
      16.3649       10.3650        0.0571        0.5225
      16.3604        7.6026        0.0571        0.5225
      16.3559        6.0483        0.0571        0.5225
      16.3515        4.8729        0.0571        0.5225
      16.3474        3.4544        0.0571        0.5225
      16.3436        2.7629        0.0571        0.5225
      16.3402        4.7402        0.0571        0.5225
      16.3374       10.0314        0.0571        0.5225
      16.3351       16.4477        0.0571        0.5225
      16.3334       20.0958        0.0571        0.5225
      16.3324       18.4573        0.0571        0.5225
      16.3321       12.5715        0.0571        0.5225
      16.3324        6.1860        0.0571        0.5225
      16.3334        2.6611        0.0571        0.5225
      16.3350        2.5686        0.0571        0.5225
      16.3371        4.1003        0.0571        0.5225
      16.3397        5.5045        0.0571        0.5225
      16.3427        6.8438        0.0571        0.5225
      16.3461        9.3451        0.0571        0.5225
      16.3497       13.3264        0.0571        0.5225
      16.3535       17.1698        0.0571        0.5225
      16.3573       18.5583        0.0571        0.5225
      16.3612       16.6668        0.0571        0.5225
      16.3649       12.9655        0.0571        0.5225
      16.3686        9.8110        0.0571        0.5225
      16.3719        8.3351        0.0571        0.5225
      16.3751        7.7710        0.0571        0.5225
      16.3779        6.7104        0.0571        0.5225
      16.3803        4.7620        0.0571        0.5225
      16.3824        2.8461        0.0571        0.5225
      16.3842        2.0163        0.0571        0.5225
      16.3855        2.2890        0.0571        0.5225
      16.3865        2.7688        0.0571        0.5225
      16.3870        2.7641        0.0571        0.5225
      16.3873        2.5072        0.0571        0.5225
      16.3872        2.7052        0.0571        0.5225
      16.3868        3.6094        0.0571        0.5225
      16.3861        4.8139        0.0571        0.5225
      16.3851        5.9893        0.0571        0.5225
      16.3839        7.5099        0.0571        0.5225
      16.3824       10.0111        0.0571        0.5225
      16.3808       13.2764        0.0571        0.5225
      16.3789       15.8536        0.0571        0.5225
      16.3769       16.1154        0.0571        0.5225
      16.3748       13.8034        0.0571        0.5225
      16.3725       10.3650        0.0571        0.5225
      16.3701        7.6026        0.0571        0.5225
      16.3676        6.0483        0.0571        0.5225
      16.3650        4.8729        0.0571        0.5225
      16.3624        3.4544        0.0571        0.5225
      16.3598        2.7629        0.0571        0.5225
      16.3571        4.7402        0.0571        0.5225
      16.3546       10.0314        0.0571        0.5225
      16.3521       16.4477        0.0571        0.5225
      16.3497       20.0958        0.0571        0.5225
      16.3475       18.4573        0.0571        0.5225
      16.3456       12.5715        0.0571        0.5225
      16.3439        6.1860        0.0571        0.5225
      16.3425        2.6611        0.0571        0.5225
      16.3415        2.5686        0.0571        0.5225
      16.3409        4.1003        0.0571        0.5225
      16.3408        5.5045        0.0571        0.5225
      16.3411        6.8438        0.0571        0.5225
      16.3420        9.3451        0.0571        0.5225
      16.3433       13.3264        0.0571        0.5225
      16.3451       17.1698        0.0571        0.5225
      16.3473       18.5583        0.0571        0.5225
      16.3500       16.6668        0.0571        0.5225
      16.3530       12.9655        0.0571        0.5225
      16.3564        9.8110        0.0571        0.5225
      16.3600        8.3351        0.0571        0.5225
      16.3637        7.7710        0.0571        0.5225
      16.3675        6.7104        0.0571        0.5225
      16.3713        4.7620        0.0571        0.5225
      16.3750        2.8461        0.0571        0.5225
      16.3784        2.0163        0.0571        0.5225
      16.3815        2.2890        0.0571        0.5225
# Sub-patterns        2
# Number of peaks
       1
# Peak profile
       1
# Width factor
     15.00000
# Range in azimuth: nvalues, and values
        90
       0.0
       4.0
       8.0
      12.0
      16.0
      20.0
      24.0
      28.0
      32.0
      36.0
      40.0
      44.0
      48.0
      52.0
      56.0
      60.0
      64.0
      68.0
      72.0
      76.0
      80.0
      84.0
      88.0
      92.0
      96.0
     100.0
     104.0
     108.0
     112.0
     116.0
     120.0
     124.0
     128.0
     132.0
     136.0
     140.0
     144.0
     148.0
     152.0
     156.0
     160.0
     164.0
     168.0
     172.0
     176.0
     180.0
     184.0
     188.0
     192.0
     196.0
     200.0
     204.0
     208.0
     212.0
     216.0
     220.0
     224.0
     228.0
     232.0
     236.0
     240.0
     244.0
     248.0
     252.0
     256.0
     260.0
     264.0
     268.0
     272.0
     276.0
     280.0
     284.0
     288.0
     292.0
     296.0
     300.0
     304.0
     308.0
     312.0
     316.0
     320.0
     324.0
     328.0
     332.0
     336.0
     340.0
     344.0
     348.0
     352.0
     356.0
# background positions, in 2 theta (left/right)
      19.8000       20.2700
      19.8000       20.2700
      19.8000       20.2700
      19.8000       20.2700
      19.8000       20.2700
      19.8000       20.2700
      19.8000       20.2700
      19.8000       20.2700
      19.8000       20.2700
      19.8000       20.2700
      19.8000       20.2700
      19.8000       20.2700
      19.8000       20.2700
      19.8000       20.2700
      19.8000       20.2700
      19.8000       20.2700
      19.8000       20.2700
      19.8000       20.2700
      19.8000       20.2700
      19.8000       20.2700
      19.8000       20.2700
      19.8000       20.2700
      19.8000       20.2700
      19.8000       20.2700
      19.8000       20.2700
      19.8000       20.2700
      19.8000       20.2700
      19.8000       20.2700
      19.8000       20.2700
      19.8000       20.2700
      19.8000       20.2700
      19.8000       20.2700
      19.8000       20.2700
      19.8000       20.2700
      19.8000       20.2700
      19.8000       20.2700
      19.8000       20.2700
      19.8000       20.2700
      19.8000       20.2700
      19.8000       20.2700
      19.8000       20.2700
      19.8000       20.2700
      19.8000       20.2700
      19.8000       20.2700
      19.8000       20.2700
      19.8000       20.2700
      19.8000       20.2700
      19.8000       20.2700
      19.8000       20.2700
      19.8000       20.2700
      19.8000       20.2700
      19.8000       20.2700
      19.8000       20.2700
      19.8000       20.2700
      19.8000       20.2700
      19.8000       20.2700
      19.8000       20.2700
      19.8000       20.2700
      19.8000       20.2700
      19.8000       20.2700
      19.8000       20.2700
      19.8000       20.2700
      19.8000       20.2700
      19.8000       20.2700
      19.8000       20.2700
      19.8000       20.2700
      19.8000       20.2700
      19.8000       20.2700
      19.8000       20.2700
      19.8000       20.2700
      19.8000       20.2700
      19.8000       20.2700
      19.8000       20.2700
      19.8000       20.2700
      19.8000       20.2700
      19.8000       20.2700
      19.8000       20.2700
      19.8000       20.2700
      19.8000       20.2700
      19.8000       20.2700
      19.8000       20.2700
      19.8000       20.2700
      19.8000       20.2700
      19.8000       20.2700
      19.8000       20.2700
      19.8000       20.2700
      19.8000       20.2700
      19.8000       20.2700
      19.8000       20.2700
      19.8000       20.2700
# background coefficients
       5.0476        0.7001
       5.0476        0.7001
       5.0476        0.7001
       5.0476        0.7001
       5.0476        0.7001
       5.0476        0.7001
       5.0476        0.7001
       5.0476        0.7001
       5.0476        0.7001
       5.0476        0.7001
       5.0476        0.7001
       5.0476        0.7001
       5.0476        0.7001
       5.0476        0.7001
       5.0476        0.7001
       5.0476        0.7001
       5.0476        0.7001
       5.0476        0.7001
       5.0476        0.7001
       5.0476        0.7001
       5.0476        0.7001
       5.0476        0.7001
       5.0476        0.7001
       5.0476        0.7001
       5.0476        0.7001
       5.0476        0.7001
       5.0476        0.7001
       5.0476        0.7001
       5.0476        0.7001
       5.0476        0.7001
       5.0476        0.7001
       5.0476        0.7001
       5.0476        0.7001
       5.0476        0.7001
       5.0476        0.7001
       5.0476        0.7001
       5.0476        0.7001
       5.0476        0.7001
       5.0476        0.7001
       5.0476        0.7001
       5.0476        0.7001
       5.0476        0.7001
       5.0476        0.7001
       5.0476        0.7001
       5.0476        0.7001
       5.0476        0.7001
       5.0476        0.7001
       5.0476        0.7001
       5.0476        0.7001
       5.0476        0.7001
       5.0476        0.7001
       5.0476        0.7001
       5.0476        0.7001
       5.0476        0.7001
       5.0476        0.7001
       5.0476        0.7001
       5.0476        0.7001
       5.0476        0.7001
       5.0476        0.7001
       5.0476        0.7001
       5.0476        0.7001
       5.0476        0.7001
       5.0476        0.7001
       5.0476        0.7001
       5.0476        0.7001
       5.0476        0.7001
       5.0476        0.7001
       5.0476        0.7001
       5.0476        0.7001
       5.0476        0.7001
       5.0476        0.7001
       5.0476        0.7001
       5.0476        0.7001
       5.0476        0.7001
       5.0476        0.7001
       5.0476        0.7001
       5.0476        0.7001
       5.0476        0.7001
       5.0476        0.7001
       5.0476        0.7001
       5.0476        0.7001
       5.0476        0.7001
       5.0476        0.7001
       5.0476        0.7001
       5.0476        0.7001
       5.0476        0.7001
       5.0476        0.7001
       5.0476        0.7001
       5.0476        0.7001
       5.0476        0.7001
# Peak positions (2 theta), intensity, half-width, weight Gauss/Lorentz (for pseudo-voigt),
# peak number        0
      20.0969        4.1131        0.0541        0.7500
      20.0988        3.0989        0.0541        0.7824
      20.1001        2.1428        0.0541        0.8092
      20.1006        5.0833        0.0541        0.8301
      20.1005       13.1814        0.0541        0.8445
      20.0997       23.4276        0.0541        0.8522
      20.0981       30.5900        0.0541        0.8531
      20.0959       31.1765        0.0541        0.8471
      20.0931       25.9359        0.0541        0.8343
      20.0897       18.9709        0.0541        0.8150
      20.0859       14.4901        0.0541        0.7896
      20.0816       13.9966        0.0541        0.7586
      20.0771       15.9647        0.0541        0.7225
      20.0724       17.7655        0.0541        0.6821
      20.0677       17.9105        0.0541        0.6381
      20.0630       16.8571        0.0541        0.5915
      20.0585       16.1317        0.0541        0.5431
      20.0542       16.8682        0.0541        0.4938
      20.0503       19.0146        0.0541        0.4447
      20.0469       21.6110        0.0541        0.3966
      20.0440       23.6359        0.0541        0.3506
      20.0417       24.6399        0.0541        0.3074
      20.0401       24.7638        0.0541        0.2680
      20.0391       24.3130        0.0541        0.2332
      20.0389       23.3715        0.0541        0.2035
      20.0393       21.8360        0.0541        0.1796
      20.0404       19.8227        0.0541        0.1619
      20.0422       17.9898        0.0541        0.1508
      20.0445       17.2803        0.0541        0.1465
      20.0474       18.0912        0.0541        0.1491
      20.0507       19.5685        0.0541        0.1585
      20.0544       19.9196        0.0541        0.1746
      20.0585       17.8864        0.0541        0.1969
      20.0627       14.3074        0.0541        0.2252
      20.0670       12.1661        0.0541        0.2589
      20.0714       14.5243        0.0541        0.2972
      20.0758       21.6707        0.0541        0.3395
      20.0800       29.9671        0.0541        0.3849
      20.0839       33.8551        0.0541        0.4325
      20.0877       29.8575        0.0541        0.4815
      20.0910       19.4069        0.0541        0.5308
      20.0940        7.9896        0.0541        0.5795
      20.0966        1.1002        0.0541        0.6267
      20.0987        0.3046        0.0541        0.6714
      20.1004        2.6996        0.0541        0.7128
      20.1016        4.1131        0.0541        0.7500
      20.1022        3.0989        0.0541        0.7824
      20.1024        2.1428        0.0541        0.8092
      20.1022        5.0833        0.0541        0.8301
      20.1014       13.1814        0.0541        0.8445
      20.1003       23.4276        0.0541        0.8522
      20.0987       30.5900        0.0541        0.8531
      20.0968       31.1765        0.0541        0.8471
      20.0945       25.9359        0.0541        0.8343
      20.0919       18.9709        0.0541        0.8150
      20.0891       14.4901        0.0541        0.7896
      20.0860       13.9966        0.0541        0.7586
      20.0827       15.9647        0.0541        0.7225
      20.0793       17.7655        0.0541        0.6821
      20.0758       17.9105        0.0541        0.6381
      20.0722       16.8571        0.0541        0.5915
      20.0687       16.1317        0.0541        0.5431
      20.0651       16.8682        0.0541        0.4938
      20.0617       19.0146        0.0541        0.4447
      20.0585       21.6110        0.0541        0.3966
      20.0554       23.6359        0.0541        0.3506
      20.0526       24.6399        0.0541        0.3074
      20.0501       24.7638        0.0541        0.2680
      20.0479       24.3130        0.0541        0.2332
      20.0462       23.3715        0.0541        0.2035
      20.0449       21.8360        0.0541        0.1796
      20.0441       19.8227        0.0541        0.1619
      20.0437       17.9898        0.0541        0.1508
      20.0439       17.2803        0.0541        0.1465
      20.0447       18.0912        0.0541        0.1491
      20.0459       19.5685        0.0541        0.1585
      20.0477       19.9196        0.0541        0.1746
      20.0500       17.8864        0.0541        0.1969
      20.0528       14.3074        0.0541        0.2252
      20.0560       12.1661        0.0541        0.2589
      20.0596       14.5243        0.0541        0.2972
      20.0634       21.6707        0.0541        0.3395
      20.0675       29.9671        0.0541        0.3849
      20.0717       33.8551        0.0541        0.4325
      20.0760       29.8575        0.0541        0.4815
      20.0802       19.4069        0.0541        0.5308
      20.0842        7.9896        0.0541        0.5795
      20.0880        1.1002        0.0541        0.6267
      20.0914        0.3046        0.0541        0.6714
      20.0944        2.6996        0.0541        0.7128
# Sub-patterns        3
# Number of peaks
       1
# Peak profile
       1
# Width factor
     15.00000
# Range in azimuth: nvalues, and values
        90
       0.0
       4.0
       8.0
      12.0
      16.0
      20.0
      24.0
      28.0
      32.0
      36.0
      40.0
      44.0
      48.0
      52.0
      56.0
      60.0
      64.0
      68.0
      72.0
      76.0
      80.0
      84.0
      88.0
      92.0
      96.0
     100.0
     104.0
     108.0
     112.0
     116.0
     120.0
     124.0
     128.0
     132.0
     136.0
     140.0
     144.0
     148.0
     152.0
     156.0
     160.0
     164.0
     168.0
     172.0
     176.0
     180.0
     184.0
     188.0
     192.0
     196.0
     200.0
     204.0
     208.0
     212.0
     216.0
     220.0
     224.0
     228.0
     232.0
     236.0
     240.0
     244.0
     248.0
     252.0
     256.0
     260.0
     264.0
     268.0
     272.0
     276.0
     280.0
     284.0
     288.0
     292.0
     296.0
     300.0
     304.0
     308.0
     312.0
     316.0
     320.0
     324.0
     328.0
     332.0
     336.0
     340.0
     344.0
     348.0
     352.0
     356.0
# background positions, in 2 theta (left/right)
      23.1001       23.5000
      23.1001       23.5000
      23.1001       23.5000
      23.1001       23.5000
      23.1001       23.5000
      23.1001       23.5000
      23.1001       23.5000
      23.1001       23.5000
      23.1001       23.5000
      23.1001       23.5000
      23.1001       23.5000
      23.1001       23.5000
      23.1001       23.5000
      23.1001       23.5000
      23.1001       23.5000
      23.1001       23.5000
      23.1001       23.5000
      23.1001       23.5000
      23.1001       23.5000
      23.1001       23.5000
      23.1001       23.5000
      23.1001       23.5000
      23.1001       23.5000
      23.1001       23.5000
      23.1001       23.5000
      23.1001       23.5000
      23.1001       23.5000
      23.1001       23.5000
      23.1001       23.5000
      23.1001       23.5000
      23.1001       23.5000
      23.1001       23.5000
      23.1001       23.5000
      23.1001       23.5000
      23.1001       23.5000
      23.1001       23.5000
      23.1001       23.5000
      23.1001       23.5000
      23.1001       23.5000
      23.1001       23.5000
      23.1001       23.5000
      23.1001       23.5000
      23.1001       23.5000
      23.1001       23.5000
      23.1001       23.5000
      23.1001       23.5000
      23.1001       23.5000
      23.1001       23.5000
      23.1001       23.5000
      23.1001       23.5000
      23.1001       23.5000
      23.1001       23.5000
      23.1001       23.5000
      23.1001       23.5000
      23.1001       23.5000
      23.1001       23.5000
      23.1001       23.5000
      23.1001       23.5000
      23.1001       23.5000
      23.1001       23.5000
      23.1001       23.5000
      23.1001       23.5000
      23.1001       23.5000
      23.1001       23.5000
      23.1001       23.5000
      23.1001       23.5000
      23.1001       23.5000
      23.1001       23.5000
      23.1001       23.5000
      23.1001       23.5000
      23.1001       23.5000
      23.1001       23.5000
      23.1001       23.5000
      23.1001       23.5000
      23.1001       23.5000
      23.1001       23.5000
      23.1001       23.5000
      23.1001       23.5000
      23.1001       23.5000
      23.1001       23.5000
      23.1001       23.5000
      23.1001       23.5000
      23.1001       23.5000
      23.1001       23.5000
      23.1001       23.5000
      23.1001       23.5000
      23.1001       23.5000
      23.1001       23.5000
      23.1001       23.5000
      23.1001       23.5000
# background coefficients
       6.0368       -3.7613
       6.0142       -3.6667
       5.9978       -3.5638
       5.9879       -3.4543
       5.9843       -3.3399
       5.9871       -3.2228
       5.9961       -3.1050
       6.0110       -2.9887
       6.0313       -2.8761
       6.0567       -2.7694
       6.0864       -2.6709
       6.1199       -2.5824
       6.1565       -2.5059
       6.1954       -2.4432
       6.2359       -2.3957
       6.2771       -2.3648
       6.3183       -2.3513
       6.3587       -2.3561
       6.3975       -2.3795
       6.4341       -2.4216
       6.4678       -2.4822
       6.4980       -2.5606
       6.5243       -2.6561
       6.5462       -2.7675
       6.5635       -2.8933
       6.5760       -3.0318
       6.5835       -3.1811
       6.5861       -3.3391
       6.5839       -3.5034
       6.5771       -3.6718
       6.5661       -3.8418
       6.5512       -4.0108
       6.5330       -4.1765
       6.5120       -4.3364
       6.4889       -4.4882
       6.4642       -4.6297
       6.4387       -4.7591
       6.4132       -4.8745
       6.3883       -4.9744
       6.3648       -5.0576
       6.3432       -5.1232
       6.3243       -5.1705
       6.3087       -5.1992
       6.2968       -5.2094
       6.2890       -5.2013
       6.2858       -5.1756
       6.2874       -5.1332
       6.2938       -5.0754
       6.3052       -5.0035
       6.3215       -4.9193
       6.3425       -4.8246
       6.3680       -4.7214
       6.3975       -4.6119
       6.4306       -4.4982
       6.4667       -4.3825
       6.5053       -4.2670
       6.5456       -4.1539
       6.5869       -4.0451
       6.6284       -3.9425
       6.6694       -3.8479
       6.7090       -3.7628
       6.7465       -3.6883
       6.7810       -3.6255
       6.8120       -3.5752
       6.8387       -3.5378
       6.8605       -3.5134
       6.8770       -3.5018
       6.8877       -3.5027
       6.8922       -3.5154
       6.8905       -3.5388
       6.8822       -3.5718
       6.8676       -3.6130
       6.8467       -3.6607
       6.8197       -3.7133
       6.7869       -3.7688
       6.7489       -3.8255
       6.7062       -3.8813
       6.6594       -3.9344
       6.6091       -3.9829
       6.5563       -4.0250
       6.5016       -4.0591
       6.4459       -4.0838
       6.3901       -4.0978
       6.3351       -4.1002
       6.2816       -4.0901
       6.2306       -4.0671
       6.1828       -4.0309
       6.1389       -3.9817
       6.0996       -3.9199
       6.0654       -3.8461
# Peak positions (2 theta), intensity, half-width, weight Gauss/Lorentz (for pseudo-voigt),
# peak number        0
      23.2460        8.0688        0.0573        0.5031
      23.2483        7.3684        0.0573        0.5031
      23.2499        5.9773        0.0573        0.5031
      23.2508        4.1601        0.0573        0.5031
      23.2510        2.4369        0.0573        0.5031
      23.2505        1.3681        0.0573        0.5031
      23.2493        1.1032        0.0573        0.5031
      23.2473        1.2014        0.0573        0.5031
      23.2448        1.0453        0.0573        0.5031
      23.2416        0.5337        0.0573        0.5031
      23.2380        0.3386        0.0573        0.5031
      23.2339        1.3581        0.0573        0.5031
      23.2294        3.7996        0.0573        0.5031
      23.2246        6.7572        0.0573        0.5031
      23.2197        8.7434        0.0573        0.5031
      23.2147        8.7546        0.0573        0.5031
      23.2098        6.9709        0.0573        0.5031
      23.2050        4.5450        0.0573        0.5031
      23.2004        2.7484        0.0573        0.5031
      23.1961        2.2107        0.0573        0.5031
      23.1923        2.7517        0.0573        0.5031
      23.1890        3.7180        0.0573        0.5031
      23.1862        4.4213        0.0573        0.5031
      23.1841        4.4280        0.0573        0.5031
      23.1826        3.7223        0.0573        0.5031
      23.1819        2.7843        0.0573        0.5031
      23.1819        2.4434        0.0573        0.5031
      23.1827        3.3819        0.0573        0.5031
      23.1842        5.5120        0.0573        0.5031
      23.1864        7.7750        0.0573        0.5031
      23.1893        8.7250        0.0573        0.5031
      23.1928        7.5759        0.0573        0.5031
      23.1969        4.8550        0.0573        0.5031
      23.2015        2.0366        0.0573        0.5031
      23.2065        0.4132        0.0573        0.5031
      23.2118        0.1765        0.0573        0.5031
      23.2174        0.4989        0.0573        0.5031
      23.2231        0.4735        0.0573        0.5031
      23.2288       -0.0070        0.0573        0.5031
      23.2344       -0.2284        0.0573        0.5031
      23.2398        0.5841        0.0573        0.5031
      23.2449        2.5151        0.0573        0.5031
      23.2496        4.8969        0.0573        0.5031
      23.2539        6.8713        0.0573        0.5031
      23.2575        7.9449        0.0573        0.5031
      23.2606        8.0688        0.0573        0.5031
      23.2629        7.3684        0.0573        0.5031
      23.2645        5.9773        0.0573        0.5031
      23.2654        4.1601        0.0573        0.5031
      23.2654        2.4369        0.0573        0.5031
      23.2647        1.3681        0.0573        0.5031
      23.2631        1.1032        0.0573        0.5031
      23.2609        1.2014        0.0573        0.5031
      23.2579        1.0453        0.0573        0.5031
      23.2542        0.5337        0.0573        0.5031
      23.2500        0.3386        0.0573        0.5031
      23.2453        1.3581        0.0573        0.5031
      23.2402        3.7996        0.0573        0.5031
      23.2347        6.7572        0.0573        0.5031
      23.2290        8.7434        0.0573        0.5031
      23.2232        8.7546        0.0573        0.5031
      23.2174        6.9709        0.0573        0.5031
      23.2117        4.5450        0.0573        0.5031
      23.2062        2.7484        0.0573        0.5031
      23.2010        2.2107        0.0573        0.5031
      23.1962        2.7517        0.0573        0.5031
      23.1919        3.7180        0.0573        0.5031
      23.1881        4.4213        0.0573        0.5031
      23.1850        4.4280        0.0573        0.5031
      23.1825        3.7223        0.0573        0.5031
      23.1808        2.7843        0.0573        0.5031
      23.1798        2.4434        0.0573        0.5031
      23.1795        3.3819        0.0573        0.5031
      23.1800        5.5120        0.0573        0.5031
      23.1813        7.7750        0.0573        0.5031
      23.1833        8.7250        0.0573        0.5031
      23.1859        7.5759        0.0573        0.5031
      23.1891        4.8550        0.0573        0.5031
      23.1928        2.0366        0.0573        0.5031
      23.1970        0.4132        0.0573        0.5031
      23.2016        0.1765        0.0573        0.5031
      23.2065        0.4989        0.0573        0.5031
      23.2115        0.4735        0.0573        0.5031
      23.2166       -0.0070        0.0573        0.5031
      23.2217       -0.2284        0.0573        0.5031
      23.2266        0.5841        0.0573        0.5031
      23.2313        2.5151        0.0573        0.5031
      23.2357        4.8969        0.0573        0.5031
      23.2397        6.8713        0.0573        0.5031
      23.2431        7.9449        0.0573        0.5031
# Sub-patterns        4
# Number of peaks
       1
# Peak profile
       1
# Width factor
     15.00000
# Range in azimuth: nvalues, and values
        90
       0.0
       4.0
       8.0
      12.0
      16.0
      20.0
      24.0
      28.0
      32.0
      36.0
      40.0
      44.0
      48.0
      52.0
      56.0
      60.0
      64.0
      68.0
      72.0
      76.0
      80.0
      84.0
      88.0
      92.0
      96.0
     100.0
     104.0
     108.0
     112.0
     116.0
     120.0
     124.0
     128.0
     132.0
     136.0
     140.0
     144.0
     148.0
     152.0
     156.0
     160.0
     164.0
     168.0
     172.0
     176.0
     180.0
     184.0
     188.0
     192.0
     196.0
     200.0
     204.0
     208.0
     212.0
     216.0
     220.0
     224.0
     228.0
     232.0
     236.0
     240.0
     244.0
     248.0
     252.0
     256.0
     260.0
     264.0
     268.0
     272.0
     276.0
     280.0
     284.0
     288.0
     292.0
     296.0
     300.0
     304.0
     308.0
     312.0
     316.0
     320.0
     324.0
     328.0
     332.0
     336.0
     340.0
     344.0
     348.0
     352.0
     356.0
# background positions, in 2 theta (left/right)
      25.7000       26.3999
      25.7000       26.3999
      25.7000       26.3999
      25.7000       26.3999
      25.7000       26.3999
      25.7000       26.3999
      25.7000       26.3999
      25.7000       26.3999
      25.7000       26.3999
      25.7000       26.3999
      25.7000       26.3999
      25.7000       26.3999
      25.7000       26.3999
      25.7000       26.3999
      25.7000       26.3999
      25.7000       26.3999
      25.7000       26.3999
      25.7000       26.3999
      25.7000       26.3999
      25.7000       26.3999
      25.7000       26.3999
      25.7000       26.3999
      25.7000       26.3999
      25.7000       26.3999
      25.7000       26.3999
      25.7000       26.3999
      25.7000       26.3999
      25.7000       26.3999
      25.7000       26.3999
      25.7000       26.3999
      25.7000       26.3999
      25.7000       26.3999
      25.7000       26.3999
      25.7000       26.3999
      25.7000       26.3999
      25.7000       26.3999
      25.7000       26.3999
      25.7000       26.3999
      25.7000       26.3999
      25.7000       26.3999
      25.7000       26.3999
      25.7000       26.3999
      25.7000       26.3999
      25.7000       26.3999
      25.7000       26.3999
      25.7000       26.3999
      25.7000       26.3999
      25.7000       26.3999
      25.7000       26.3999
      25.7000       26.3999
      25.7000       26.3999
      25.7000       26.3999
      25.7000       26.3999
      25.7000       26.3999
      25.7000       26.3999
      25.7000       26.3999
      25.7000       26.3999
      25.7000       26.3999
      25.7000       26.3999
      25.7000       26.3999
      25.7000       26.3999
      25.7000       26.3999
      25.7000       26.3999
      25.7000       26.3999
      25.7000       26.3999
      25.7000       26.3999
      25.7000       26.3999
      25.7000       26.3999
      25.7000       26.3999
      25.7000       26.3999
      25.7000       26.3999
      25.7000       26.3999
      25.7000       26.3999
      25.7000       26.3999
      25.7000       26.3999
      25.7000       26.3999
      25.7000       26.3999
      25.7000       26.3999
      25.7000       26.3999
      25.7000       26.3999
      25.7000       26.3999
      25.7000       26.3999
      25.7000       26.3999
      25.7000       26.3999
      25.7000       26.3999
      25.7000       26.3999
      25.7000       26.3999
      25.7000       26.3999
      25.7000       26.3999
      25.7000       26.3999
# background coefficients
       4.1830       -0.3145
       4.2207       -0.3370
       4.2709       -0.3267
       4.3321       -0.2843
       4.4025       -0.2111
       4.4802       -0.1088
       4.5633        0.0203
       4.6498        0.1734
       4.7377        0.3472
       4.8252        0.5382
       4.9104        0.7425
       4.9916        0.9561
       5.0673        1.1747
       5.1360        1.3942
       5.1967        1.6103
       5.2484        1.8188
       5.2904        2.0159
       5.3224        2.1980
       5.3442        2.3617
       5.3558        2.5042
       5.3578        2.6229
       5.3508        2.7160
       5.3355        2.7821
       5.3132        2.8204
       5.2851        2.8305
       5.2526        2.8128
       5.2174        2.7682
       5.1810        2.6982
       5.1452        2.6047
       5.1118        2.4901
       5.0825        2.3574
       5.0589        2.2098
       5.0426        2.0508
       5.0350        1.8843
       5.0374        1.7141
       5.0508        1.5443
       5.0762        1.3789
       5.1140        1.2218
       5.1647        1.0767
       5.2283        0.9471
       5.3046        0.8362
       5.3931        0.7469
       5.4930        0.6814
       5.6032        0.6417
       5.7226        0.6291
       5.8496        0.6444
       5.9824        0.6878
       6.1192        0.7590
       6.2579        0.8569
       6.3965        0.9802
       6.5327        1.1267
       6.6642        1.2940
       6.7889        1.4790
       6.9047        1.6785
       7.0095        1.8886
       7.1013        2.1055
       7.1784        2.3250
       7.2394        2.5429
       7.2828        2.7549
       7.3077        2.9570
       7.3134        3.1449
       7.2993        3.3150
       7.2654        3.4636
       7.2118        3.5878
       7.1390        3.6847
       7.0478        3.7522
       6.9394        3.7885
       6.8151        3.7926
       6.6764        3.7639
       6.5253        3.7025
       6.3638        3.6090
       6.1942        3.4848
       6.0186        3.3316
       5.8396        3.1519
       5.6595        2.9484
       5.4809        2.7246
       5.3060        2.4841
       5.1373        2.2308
       4.9768        1.9692
       4.8265        1.7035
       4.6884        1.4382
       4.5639        1.1778
       4.4544        0.9266
       4.3609        0.6890
       4.2843        0.4687
       4.2250        0.2695
       4.1831        0.0946
       4.1585       -0.0533
       4.1508       -0.1718
       4.1593       -0.2593
# Peak positions (2 theta), intensity, half-width, weight Gauss/Lorentz (for pseudo-voigt),
# peak number        0
      26.0667        6.9122        0.0964        0.5000
      26.0692        6.9569        0.0964        0.5000
      26.0706        6.9635        0.0964        0.5000
      26.0708        6.9319        0.0964        0.5000
      26.0699        6.8625        0.0964        0.5000
      26.0679        6.7569        0.0964        0.5000
      26.0648        6.6170        0.0964        0.5000
      26.0607        6.4456        0.0964        0.5000
      26.0557        6.2460        0.0964        0.5000
      26.0499        6.0221        0.0964        0.5000
      26.0434        5.7782        0.0964        0.5000
      26.0363        5.5191        0.0964        0.5000
      26.0289        5.2499        0.0964        0.5000
      26.0212        4.9757        0.0964        0.5000
      26.0134        4.7020        0.0964        0.5000
      26.0057        4.4340        0.0964        0.5000
      25.9982        4.1770        0.0964        0.5000
      25.9911        3.9359        0.0964        0.5000
      25.9846        3.7155        0.0964        0.5000
      25.9787        3.5200        0.0964        0.5000
      25.9736        3.3533        0.0964        0.5000
      25.9695        3.2186        0.0964        0.5000
      25.9663        3.1185        0.0964        0.5000
      25.9641        3.0549        0.0964        0.5000
      25.9631        3.0292        0.0964        0.5000
      25.9632        3.0418        0.0964        0.5000
      25.9645        3.0924        0.0964        0.5000
      25.9669        3.1801        0.0964        0.5000
      25.9703        3.3031        0.0964        0.5000
      25.9748        3.4592        0.0964        0.5000
      25.9802        3.6451        0.0964        0.5000
      25.9865        3.8574        0.0964        0.5000
      25.9934        4.0919        0.0964        0.5000
      26.0010        4.3440        0.0964        0.5000
      26.0090        4.6088        0.0964        0.5000
      26.0173        4.8811        0.0964        0.5000
      26.0258        5.1557        0.0964        0.5000
      26.0342        5.4272        0.0964        0.5000
      26.0424        5.6904        0.0964        0.5000
      26.0503        5.9401        0.0964        0.5000
      26.0577        6.1714        0.0964        0.5000
      26.0644        6.3798        0.0964        0.5000
      26.0703        6.5613        0.0964        0.5000
      26.0753        6.7124        0.0964        0.5000
      26.0792        6.8301        0.0964        0.5000
      26.0821        6.9122        0.0964        0.5000
      26.0839        6.9569        0.0964        0.5000
      26.0844        6.9635        0.0964        0.5000
      26.0837        6.9319        0.0964        0.5000
      26.0818        6.8625        0.0964        0.5000
      26.0787        6.7569        0.0964        0.5000
      26.0745        6.6170        0.0964        0.5000
      26.0693        6.4456        0.0964        0.5000
      26.0631        6.2460        0.0964        0.5000
      26.0561        6.0221        0.0964        0.5000
      26.0483        5.7782        0.0964        0.5000
      26.0400        5.5191        0.0964        0.5000
      26.0312        5.2499        0.0964        0.5000
      26.0222        4.9757        0.0964        0.5000
      26.0131        4.7020        0.0964        0.5000
      26.0041        4.4340        0.0964        0.5000
      25.9954        4.1770        0.0964        0.5000
      25.9870        3.9359        0.0964        0.5000
      25.9792        3.7155        0.0964        0.5000
      25.9721        3.5200        0.0964        0.5000
      25.9658        3.3533        0.0964        0.5000
      25.9605        3.2186        0.0964        0.5000
      25.9562        3.1185        0.0964        0.5000
      25.9530        3.0549        0.0964        0.5000
      25.9509        3.0292        0.0964        0.5000
      25.9501        3.0418        0.0964        0.5000
      25.9505        3.0924        0.0964        0.5000
      25.9520        3.1801        0.0964        0.5000
      25.9547        3.3031        0.0964        0.5000
      25.9585        3.4592        0.0964        0.5000
      25.9633        3.6451        0.0964        0.5000
      25.9690        3.8574        0.0964        0.5000
      25.9756        4.0919        0.0964        0.5000
      25.9828        4.3440        0.0964        0.5000
      25.9906        4.6088        0.0964        0.5000
      25.9987        4.8811        0.0964        0.5000
      26.0071        5.1557        0.0964        0.5000
      26.0155        5.4272        0.0964        0.5000
      26.0238        5.6904        0.0964        0.5000
      26.0319        5.9401        0.0964        0.5000
      26.0395        6.1714        0.0964        0.5000
      26.0466        6.3798        0.0964        0.5000
      26.0529        6.5613        0.0964        0.5000
      26.0585        6.7124        0.0964        0.5000
      26.0631        6.8301        0.0964        0.5000
