# File version
1
# Peak profile (0: gauss, 1: pseudo-voigt, 2: lorentz)
       0
# Number of sub-patterns
       5
# Sub-patterns        0
# Number of peaks
       2
# Peak profile
       1
# Width factor
     15.00000
# Range in azimuth: nvalues, and values
        90
       0.0
       4.0
       8.0
      12.0
      16.0
      20.0
      24.0
      28.0
      32.0
      36.0
      40.0
      44.0
      48.0
      52.0
      56.0
      60.0
      64.0
      68.0
      72.0
      76.0
      80.0
      84.0
      88.0
      92.0
      96.0
     100.0
     104.0
     108.0
     112.0
     116.0
     120.0
     124.0
     128.0
     132.0
     136.0
     140.0
     144.0
     148.0
     152.0
     156.0
     160.0
     164.0
     168.0
     172.0
     176.0
     180.0
     184.0
     188.0
     192.0
     196.0
     200.0
     204.0
     208.0
     212.0
     216.0
     220.0
     224.0
     228.0
     232.0
     236.0
     240.0
     244.0
     248.0
     252.0
     256.0
     260.0
     264.0
     268.0
     272.0
     276.0
     280.0
     284.0
     288.0
     292.0
     296.0
     300.0
     304.0
     308.0
     312.0
     316.0
     320.0
     324.0
     328.0
     332.0
     336.0
     340.0
     344.0
     348.0
     352.0
     356.0
# background positions, in 2 theta (left/right)
      10.8000       11.6700
      10.8000       11.6700
      10.8000       11.6700
      10.8000       11.6700
      10.8000       11.6700
      10.8000       11.6700
      10.8000       11.6700
      10.8000       11.6700
      10.8000       11.6700
      10.8000       11.6700
      10.8000       11.6700
      10.8000       11.6700
      10.8000       11.6700
      10.8000       11.6700
      10.8000       11.6700
      10.8000       11.6700
      10.8000       11.6700
      10.8000       11.6700
      10.8000       11.6700
      10.8000       11.6700
      10.8000       11.6700
      10.8000       11.6700
      10.8000       11.6700
      10.8000       11.6700
      10.8000       11.6700
      10.8000       11.6700
      10.8000       11.6700
      10.8000       11.6700
      10.8000       11.6700
      10.8000       11.6700
      10.8000       11.6700
      10.8000       11.6700
      10.8000       11.6700
      10.8000       11.6700
      10.8000       11.6700
      10.8000       11.6700
      10.8000       11.6700
      10.8000       11.6700
      10.8000       11.6700
      10.8000       11.6700
      10.8000       11.6700
      10.8000       11.6700
      10.8000       11.6700
      10.8000       11.6700
      10.8000       11.6700
      10.8000       11.6700
      10.8000       11.6700
      10.8000       11.6700
      10.8000       11.6700
      10.8000       11.6700
      10.8000       11.6700
      10.8000       11.6700
      10.8000       11.6700
      10.8000       11.6700
      10.8000       11.6700
      10.8000       11.6700
      10.8000       11.6700
      10.8000       11.6700
      10.8000       11.6700
      10.8000       11.6700
      10.8000       11.6700
      10.8000       11.6700
      10.8000       11.6700
      10.8000       11.6700
      10.8000       11.6700
      10.8000       11.6700
      10.8000       11.6700
      10.8000       11.6700
      10.8000       11.6700
      10.8000       11.6700
      10.8000       11.6700
      10.8000       11.6700
      10.8000       11.6700
      10.8000       11.6700
      10.8000       11.6700
      10.8000       11.6700
      10.8000       11.6700
      10.8000       11.6700
      10.8000       11.6700
      10.8000       11.6700
      10.8000       11.6700
      10.8000       11.6700
      10.8000       11.6700
      10.8000       11.6700
      10.8000       11.6700
      10.8000       11.6700
      10.8000       11.6700
      10.8000       11.6700
      10.8000       11.6700
      10.8000       11.6700
# background coefficients
       4.2920        3.9518
       4.2920        3.9518
       4.2920        3.9518
       4.2920        3.9518
       4.2920        3.9518
       4.2920        3.9518
       4.2920        3.9518
       4.2920        3.9518
       4.2920        3.9518
       4.2920        3.9518
       4.2920        3.9518
       4.2920        3.9518
       4.2920        3.9518
       4.2920        3.9518
       4.2920        3.9518
       4.2920        3.9518
       4.2920        3.9518
       4.2920        3.9518
       4.2920        3.9518
       4.2920        3.9518
       4.2920        3.9518
       4.2920        3.9518
       4.2920        3.9518
       4.2920        3.9518
       4.2920        3.9518
       4.2920        3.9518
       4.2920        3.9518
       4.2920        3.9518
       4.2920        3.9518
       4.2920        3.9518
       4.2920        3.9518
       4.2920        3.9518
       4.2920        3.9518
       4.2920        3.9518
       4.2920        3.9518
       4.2920        3.9518
       4.2920        3.9518
       4.2920        3.9518
       4.2920        3.9518
       4.2920        3.9518
       4.2920        3.9518
       4.2920        3.9518
       4.2920        3.9518
       4.2920        3.9518
       4.2920        3.9518
       4.2920        3.9518
       4.2920        3.9518
       4.2920        3.9518
       4.2920        3.9518
       4.2920        3.9518
       4.2920        3.9518
       4.2920        3.9518
       4.2920        3.9518
       4.2920        3.9518
       4.2920        3.9518
       4.2920        3.9518
       4.2920        3.9518
       4.2920        3.9518
       4.2920        3.9518
       4.2920        3.9518
       4.2920        3.9518
       4.2920        3.9518
       4.2920        3.9518
       4.2920        3.9518
       4.2920        3.9518
       4.2920        3.9518
       4.2920        3.9518
       4.2920        3.9518
       4.2920        3.9518
       4.2920        3.9518
       4.2920        3.9518
       4.2920        3.9518
       4.2920        3.9518
       4.2920        3.9518
       4.2920        3.9518
       4.2920        3.9518
       4.2920        3.9518
       4.2920        3.9518
       4.2920        3.9518
       4.2920        3.9518
       4.2920        3.9518
       4.2920        3.9518
       4.2920        3.9518
       4.2920        3.9518
       4.2920        3.9518
       4.2920        3.9518
       4.2920        3.9518
       4.2920        3.9518
       4.2920        3.9518
       4.2920        3.9518
# Peak positions (2 theta), intensity, half-width, weight Gauss/Lorentz (for pseudo-voigt),
# peak number        0
      11.2008       44.7833        0.0365        0.1000
      11.2002       44.6613        0.0365        0.1000
      11.1995       44.6234        0.0365        0.1000
      11.1987       44.6704        0.0365        0.1000
      11.1977       44.8013        0.0365        0.1000
      11.1967       45.0135        0.0365        0.1000
      11.1956       45.3030        0.0365        0.1000
      11.1944       45.6642        0.0365        0.1000
      11.1932       46.0899        0.0365        0.1000
      11.1920       46.5719        0.0365        0.1000
      11.1908       47.1008        0.0365        0.1000
      11.1896       47.6663        0.0365        0.1000
      11.1885       48.2575        0.0365        0.1000
      11.1874       48.8628        0.0365        0.1000
      11.1865       49.4704        0.0365        0.1000
      11.1856       50.0685        0.0365        0.1000
      11.1849       50.6454        0.0365        0.1000
      11.1844       51.1900        0.0365        0.1000
      11.1840       51.6916        0.0365        0.1000
      11.1838       52.1405        0.0365        0.1000
      11.1838       52.5279        0.0365        0.1000
      11.1839       52.8463        0.0365        0.1000
      11.1843       53.0895        0.0365        0.1000
      11.1848       53.2528        0.0365        0.1000
      11.1855       53.3329        0.0365        0.1000
      11.1864       53.3284        0.0365        0.1000
      11.1874       53.2392        0.0365        0.1000
      11.1886       53.0673        0.0365        0.1000
      11.1898       52.8158        0.0365        0.1000
      11.1911       52.4897        0.0365        0.1000
      11.1925       52.0953        0.0365        0.1000
      11.1939       51.6403        0.0365        0.1000
      11.1953       51.1336        0.0365        0.1000
      11.1967       50.5850        0.0365        0.1000
      11.1980       50.0053        0.0365        0.1000
      11.1992       49.4056        0.0365        0.1000
      11.2003       48.7977        0.0365        0.1000
      11.2012       48.1934        0.0365        0.1000
      11.2019       47.6044        0.0365        0.1000
      11.2025       47.0423        0.0365        0.1000
      11.2029       46.5179        0.0365        0.1000
      11.2031       46.0415        0.0365        0.1000
      11.2030       45.6223        0.0365        0.1000
      11.2028       45.2685        0.0365        0.1000
      11.2023       44.9870        0.0365        0.1000
      11.2017       44.7833        0.0365        0.1000
      11.2009       44.6613        0.0365        0.1000
      11.1999       44.6234        0.0365        0.1000
      11.1988       44.6704        0.0365        0.1000
      11.1975       44.8013        0.0365        0.1000
      11.1962       45.0135        0.0365        0.1000
      11.1949       45.3030        0.0365        0.1000
      11.1935       45.6642        0.0365        0.1000
      11.1921       46.0899        0.0365        0.1000
      11.1908       46.5719        0.0365        0.1000
      11.1895       47.1008        0.0365        0.1000
      11.1883       47.6663        0.0365        0.1000
      11.1872       48.2575        0.0365        0.1000
      11.1862       48.8628        0.0365        0.1000
      11.1854       49.4704        0.0365        0.1000
      11.1848       50.0685        0.0365        0.1000
      11.1843       50.6454        0.0365        0.1000
      11.1841       51.1900        0.0365        0.1000
      11.1840       51.6916        0.0365        0.1000
      11.1840       52.1405        0.0365        0.1000
      11.1843       52.5279        0.0365        0.1000
      11.1847       52.8463        0.0365        0.1000
      11.1853       53.0895        0.0365        0.1000
      11.1861       53.2528        0.0365        0.1000
      11.1869       53.3329        0.0365        0.1000
      11.1879       53.3284        0.0365        0.1000
      11.1889       53.2392        0.0365        0.1000
      11.1900       53.0673        0.0365        0.1000
      11.1912       52.8158        0.0365        0.1000
      11.1924       52.4897        0.0365        0.1000
      11.1936       52.0953        0.0365        0.1000
      11.1948       51.6403        0.0365        0.1000
      11.1959       51.1336        0.0365        0.1000
      11.1970       50.5850        0.0365        0.1000
      11.1980       50.0053        0.0365        0.1000
      11.1989       49.4056        0.0365        0.1000
      11.1997       48.7977        0.0365        0.1000
      11.2004       48.1934        0.0365        0.1000
      11.2010       47.6044        0.0365        0.1000
      11.2014       47.0423        0.0365        0.1000
      11.2017       46.5179        0.0365        0.1000
      11.2018       46.0415        0.0365        0.1000
      11.2018       45.6223        0.0365        0.1000
      11.2016       45.2685        0.0365        0.1000
      11.2013       44.9870        0.0365        0.1000
# peak number        1
      11.5564      760.0825        0.0343        0.6814
      11.5570      645.9987        0.0343        0.6814
      11.5574      365.4092        0.0343        0.6814
      11.5576      166.0022        0.0343        0.6814
      11.5575       87.9768        0.0343        0.6814
      11.5573       51.0480        0.0343        0.6814
      11.5569       28.6343        0.0343        0.6814
      11.5563       23.4194        0.0343        0.6814
      11.5555       25.5379        0.0343        0.6814
      11.5545       22.7811        0.0343        0.6814
      11.5533       28.5144        0.0343        0.6814
      11.5520       57.0054        0.0343        0.6814
      11.5505       93.0225        0.0343        0.6814
      11.5490      135.5233        0.0343        0.6814
      11.5473      185.3783        0.0343        0.6814
      11.5457      203.6256        0.0343        0.6814
      11.5440      167.8395        0.0343        0.6814
      11.5424      105.4544        0.0343        0.6814
      11.5408       58.3411        0.0343        0.6814
      11.5394       48.0813        0.0343        0.6814
      11.5381       57.0443        0.0343        0.6814
      11.5371       65.6204        0.0343        0.6814
      11.5362       74.1306        0.0343        0.6814
      11.5356       71.7727        0.0343        0.6814
      11.5353       58.3843        0.0343        0.6814
      11.5353       56.4721        0.0343        0.6814
      11.5356       69.9309        0.0343        0.6814
      11.5362       92.5323        0.0343        0.6814
      11.5372      130.4252        0.0343        0.6814
      11.5384      183.5012        0.0343        0.6814
      11.5399      215.8482        0.0343        0.6814
      11.5417      178.1719        0.0343        0.6814
      11.5437       96.4401        0.0343        0.6814
      11.5459       44.9077        0.0343        0.6814
      11.5483       28.2554        0.0343        0.6814
      11.5507       18.6686        0.0343        0.6814
      11.5532       16.1561        0.0343        0.6814
      11.5558       16.2396        0.0343        0.6814
      11.5582       22.6026        0.0343        0.6814
      11.5606       36.5365        0.0343        0.6814
      11.5628       48.1143        0.0343        0.6814
      11.5648       88.5189        0.0343        0.6814
      11.5666      187.8110        0.0343        0.6814
      11.5681      358.0875        0.0343        0.6814
      11.5692      600.2230        0.0343        0.6814
      11.5701      760.0825        0.0343        0.6814
      11.5706      645.9987        0.0343        0.6814
      11.5707      365.4092        0.0343        0.6814
      11.5705      166.0022        0.0343        0.6814
      11.5700       87.9768        0.0343        0.6814
      11.5691       51.0480        0.0343        0.6814
      11.5679       28.6343        0.0343        0.6814
      11.5665       23.4194        0.0343        0.6814
      11.5648       25.5379        0.0343        0.6814
      11.5629       22.7811        0.0343        0.6814
      11.5608       28.5144        0.0343        0.6814
      11.5587       57.0054        0.0343        0.6814
      11.5564       93.0225        0.0343        0.6814
      11.5541      135.5233        0.0343        0.6814
      11.5519      185.3783        0.0343        0.6814
      11.5497      203.6256        0.0343        0.6814
      11.5476      167.8395        0.0343        0.6814
      11.5456      105.4544        0.0343        0.6814
      11.5438       58.3411        0.0343        0.6814
      11.5422       48.0813        0.0343        0.6814
      11.5407       57.0443        0.0343        0.6814
      11.5395       65.6204        0.0343        0.6814
      11.5386       74.1306        0.0343        0.6814
      11.5378       71.7727        0.0343        0.6814
      11.5373       58.3843        0.0343        0.6814
      11.5371       56.4721        0.0343        0.6814
      11.5371       69.9309        0.0343        0.6814
      11.5372       92.5323        0.0343        0.6814
      11.5377      130.4252        0.0343        0.6814
      11.5382      183.5012        0.0343        0.6814
      11.5390      215.8482        0.0343        0.6814
      11.5399      178.1719        0.0343        0.6814
      11.5410       96.4401        0.0343        0.6814
      11.5422       44.9077        0.0343        0.6814
      11.5434       28.2554        0.0343        0.6814
      11.5447       18.6686        0.0343        0.6814
      11.5461       16.1561        0.0343        0.6814
      11.5474       16.2396        0.0343        0.6814
      11.5488       22.6026        0.0343        0.6814
      11.5502       36.5365        0.0343        0.6814
      11.5514       48.1143        0.0343        0.6814
      11.5527       88.5189        0.0343        0.6814
      11.5538      187.8110        0.0343        0.6814
      11.5548      358.0875        0.0343        0.6814
      11.5557      600.2230        0.0343        0.6814
# Sub-patterns        1
# Number of peaks
       1
# Peak profile
       1
# Width factor
     15.00000
# Range in azimuth: nvalues, and values
        90
       0.0
       4.0
       8.0
      12.0
      16.0
      20.0
      24.0
      28.0
      32.0
      36.0
      40.0
      44.0
      48.0
      52.0
      56.0
      60.0
      64.0
      68.0
      72.0
      76.0
      80.0
      84.0
      88.0
      92.0
      96.0
     100.0
     104.0
     108.0
     112.0
     116.0
     120.0
     124.0
     128.0
     132.0
     136.0
     140.0
     144.0
     148.0
     152.0
     156.0
     160.0
     164.0
     168.0
     172.0
     176.0
     180.0
     184.0
     188.0
     192.0
     196.0
     200.0
     204.0
     208.0
     212.0
     216.0
     220.0
     224.0
     228.0
     232.0
     236.0
     240.0
     244.0
     248.0
     252.0
     256.0
     260.0
     264.0
     268.0
     272.0
     276.0
     280.0
     284.0
     288.0
     292.0
     296.0
     300.0
     304.0
     308.0
     312.0
     316.0
     320.0
     324.0
     328.0
     332.0
     336.0
     340.0
     344.0
     348.0
     352.0
     356.0
# background positions, in 2 theta (left/right)
      16.1000       16.6000
      16.1000       16.6000
      16.1000       16.6000
      16.1000       16.6000
      16.1000       16.6000
      16.1000       16.6000
      16.1000       16.6000
      16.1000       16.6000
      16.1000       16.6000
      16.1000       16.6000
      16.1000       16.6000
      16.1000       16.6000
      16.1000       16.6000
      16.1000       16.6000
      16.1000       16.6000
      16.1000       16.6000
      16.1000       16.6000
      16.1000       16.6000
      16.1000       16.6000
      16.1000       16.6000
      16.1000       16.6000
      16.1000       16.6000
      16.1000       16.6000
      16.1000       16.6000
      16.1000       16.6000
      16.1000       16.6000
      16.1000       16.6000
      16.1000       16.6000
      16.1000       16.6000
      16.1000       16.6000
      16.1000       16.6000
      16.1000       16.6000
      16.1000       16.6000
      16.1000       16.6000
      16.1000       16.6000
      16.1000       16.6000
      16.1000       16.6000
      16.1000       16.6000
      16.1000       16.6000
      16.1000       16.6000
      16.1000       16.6000
      16.1000       16.6000
      16.1000       16.6000
      16.1000       16.6000
      16.1000       16.6000
      16.1000       16.6000
      16.1000       16.6000
      16.1000       16.6000
      16.1000       16.6000
      16.1000       16.6000
      16.1000       16.6000
      16.1000       16.6000
      16.1000       16.6000
      16.1000       16.6000
      16.1000       16.6000
      16.1000       16.6000
      16.1000       16.6000
      16.1000       16.6000
      16.1000       16.6000
      16.1000       16.6000
      16.1000       16.6000
      16.1000       16.6000
      16.1000       16.6000
      16.1000       16.6000
      16.1000       16.6000
      16.1000       16.6000
      16.1000       16.6000
      16.1000       16.6000
      16.1000       16.6000
      16.1000       16.6000
      16.1000       16.6000
      16.1000       16.6000
      16.1000       16.6000
      16.1000       16.6000
      16.1000       16.6000
      16.1000       16.6000
      16.1000       16.6000
      16.1000       16.6000
      16.1000       16.6000
      16.1000       16.6000
      16.1000       16.6000
      16.1000       16.6000
      16.1000       16.6000
      16.1000       16.6000
      16.1000       16.6000
      16.1000       16.6000
      16.1000       16.6000
      16.1000       16.6000
      16.1000       16.6000
      16.1000       16.6000
# background coefficients
       5.0850        0.1558
       5.0850        0.1558
       5.0850        0.1558
       5.0850        0.1558
       5.0850        0.1558
       5.0850        0.1558
       5.0850        0.1558
       5.0850        0.1558
       5.0850        0.1558
       5.0850        0.1558
       5.0850        0.1558
       5.0850        0.1558
       5.0850        0.1558
       5.0850        0.1558
       5.0850        0.1558
       5.0850        0.1558
       5.0850        0.1558
       5.0850        0.1558
       5.0850        0.1558
       5.0850        0.1558
       5.0850        0.1558
       5.0850        0.1558
       5.0850        0.1558
       5.0850        0.1558
       5.0850        0.1558
       5.0850        0.1558
       5.0850        0.1558
       5.0850        0.1558
       5.0850        0.1558
       5.0850        0.1558
       5.0850        0.1558
       5.0850        0.1558
       5.0850        0.1558
       5.0850        0.1558
       5.0850        0.1558
       5.0850        0.1558
       5.0850        0.1558
       5.0850        0.1558
       5.0850        0.1558
       5.0850        0.1558
       5.0850        0.1558
       5.0850        0.1558
       5.0850        0.1558
       5.0850        0.1558
       5.0850        0.1558
       5.0850        0.1558
       5.0850        0.1558
       5.0850        0.1558
       5.0850        0.1558
       5.0850        0.1558
       5.0850        0.1558
       5.0850        0.1558
       5.0850        0.1558
       5.0850        0.1558
       5.0850        0.1558
       5.0850        0.1558
       5.0850        0.1558
       5.0850        0.1558
       5.0850        0.1558
       5.0850        0.1558
       5.0850        0.1558
       5.0850        0.1558
       5.0850        0.1558
       5.0850        0.1558
       5.0850        0.1558
       5.0850        0.1558
       5.0850        0.1558
       5.0850        0.1558
       5.0850        0.1558
       5.0850        0.1558
       5.0850        0.1558
       5.0850        0.1558
       5.0850        0.1558
       5.0850        0.1558
       5.0850        0.1558
       5.0850        0.1558
       5.0850        0.1558
       5.0850        0.1558
       5.0850        0.1558
       5.0850        0.1558
       5.0850        0.1558
       5.0850        0.1558
       5.0850        0.1558
       5.0850        0.1558
       5.0850        0.1558
       5.0850        0.1558
       5.0850        0.1558
       5.0850        0.1558
       5.0850        0.1558
       5.0850        0.1558
# Peak positions (2 theta), intensity, half-width, weight Gauss/Lorentz (for pseudo-voigt),
# peak number        0
      16.3801        2.2731        0.0591        0.5951
      16.3822        2.3799        0.0591        0.5951
      16.3838        2.5673        0.0591        0.5951
      16.3848        3.1132        0.0591        0.5951
      16.3851        3.9093        0.0591        0.5951
      16.3847        4.6412        0.0591        0.5951
      16.3837        5.4457        0.0591        0.5951
      16.3821        7.0646        0.0591        0.5951
      16.3799       10.0228        0.0591        0.5951
      16.3771       13.6308        0.0591        0.5951
      16.3739       16.0888        0.0591        0.5951
      16.3703       15.8989        0.0591        0.5951
      16.3664       13.2602        0.0591        0.5951
      16.3623        9.9301        0.0591        0.5951
      16.3582        7.5773        0.0591        0.5951
      16.3541        6.3324        0.0591        0.5951
      16.3502        5.1305        0.0591        0.5951
      16.3465        3.4954        0.0591        0.5951
      16.3431        2.7132        0.0591        0.5951
      16.3402        4.8381        0.0591        0.5951
      16.3378       10.3103        0.0591        0.5951
      16.3359       16.6773        0.0591        0.5951
      16.3345       20.0436        0.0591        0.5951
      16.3338       18.1661        0.0591        0.5951
      16.3336       12.3342        0.0591        0.5951
      16.3340        6.2442        0.0591        0.5951
      16.3350        2.9582        0.0591        0.5951
      16.3365        2.8178        0.0591        0.5951
      16.3384        4.0717        0.0591        0.5951
      16.3406        5.2091        0.0591        0.5951
      16.3432        6.4347        0.0591        0.5951
      16.3460        8.8961        0.0591        0.5951
      16.3490       12.7750        0.0591        0.5951
      16.3520       16.4918        0.0591        0.5951
      16.3551       17.9409        0.0591        0.5951
      16.3581       16.4272        0.0591        0.5951
      16.3610       13.2627        0.0591        0.5951
      16.3637       10.4640        0.0591        0.5951
      16.3662        8.9695        0.0591        0.5951
      16.3684        8.1575        0.0591        0.5951
      16.3704        6.9332        0.0591        0.5951
      16.3722        5.0357        0.0591        0.5951
      16.3737        3.1974        0.0591        0.5951
      16.3749        2.2068        0.0591        0.5951
      16.3758        2.0879        0.0591        0.5951
      16.3766        2.2731        0.0591        0.5951
      16.3770        2.3799        0.0591        0.5951
      16.3773        2.5673        0.0591        0.5951
      16.3774        3.1132        0.0591        0.5951
      16.3774        3.9093        0.0591        0.5951
      16.3771        4.6412        0.0591        0.5951
      16.3768        5.4457        0.0591        0.5951
      16.3763        7.0646        0.0591        0.5951
      16.3756       10.0228        0.0591        0.5951
      16.3748       13.6308        0.0591        0.5951
      16.3739       16.0888        0.0591        0.5951
      16.3728       15.8989        0.0591        0.5951
      16.3715       13.2602        0.0591        0.5951
      16.3701        9.9301        0.0591        0.5951
      16.3686        7.5773        0.0591        0.5951
      16.3668        6.3324        0.0591        0.5951
      16.3650        5.1305        0.0591        0.5951
      16.3629        3.4954        0.0591        0.5951
      16.3608        2.7132        0.0591        0.5951
      16.3586        4.8381        0.0591        0.5951
      16.3563       10.3103        0.0591        0.5951
      16.3540       16.6773        0.0591        0.5951
      16.3517       20.0436        0.0591        0.5951
      16.3495       18.1661        0.0591        0.5951
      16.3474       12.3342        0.0591        0.5951
      16.3455        6.2442        0.0591        0.5951
      16.3439        2.9582        0.0591        0.5951
      16.3426        2.8178        0.0591        0.5951
      16.3416        4.0717        0.0591        0.5951
      16.3411        5.2091        0.0591        0.5951
      16.3410        6.4347        0.0591        0.5951
      16.3415        8.8961        0.0591        0.5951
      16.3423       12.7750        0.0591        0.5951
      16.3437       16.4918        0.0591        0.5951
      16.3456       17.9409        0.0591        0.5951
      16.3479       16.4272        0.0591        0.5951
      16.3506       13.2627        0.0591        0.5951
      16.3537       10.4640        0.0591        0.5951
      16.3570        8.9695        0.0591        0.5951
      16.3605        8.1575        0.0591        0.5951
      16.3641        6.9332        0.0591        0.5951
      16.3677        5.0357        0.0591        0.5951
      16.3712        3.1974        0.0591        0.5951
      16.3745        2.2068        0.0591        0.5951
      16.3775        2.0879        0.0591        0.5951
# Sub-patterns        2
# Number of peaks
       1
# Peak profile
       1
# Width factor
     15.00000
# Range in azimuth: nvalues, and values
        90
       0.0
       4.0
       8.0
      12.0
      16.0
      20.0
      24.0
      28.0
      32.0
      36.0
      40.0
      44.0
      48.0
      52.0
      56.0
      60.0
      64.0
      68.0
      72.0
      76.0
      80.0
      84.0
      88.0
      92.0
      96.0
     100.0
     104.0
     108.0
     112.0
     116.0
     120.0
     124.0
     128.0
     132.0
     136.0
     140.0
     144.0
     148.0
     152.0
     156.0
     160.0
     164.0
     168.0
     172.0
     176.0
     180.0
     184.0
     188.0
     192.0
     196.0
     200.0
     204.0
     208.0
     212.0
     216.0
     220.0
     224.0
     228.0
     232.0
     236.0
     240.0
     244.0
     248.0
     252.0
     256.0
     260.0
     264.0
     268.0
     272.0
     276.0
     280.0
     284.0
     288.0
     292.0
     296.0
     300.0
     304.0
     308.0
     312.0
     316.0
     320.0
     324.0
     328.0
     332.0
     336.0
     340.0
     344.0
     348.0
     352.0
     356.0
# background positions, in 2 theta (left/right)
      19.8000       20.2700
      19.8000       20.2700
      19.8000       20.2700
      19.8000       20.2700
      19.8000       20.2700
      19.8000       20.2700
      19.8000       20.2700
      19.8000       20.2700
      19.8000       20.2700
      19.8000       20.2700
      19.8000       20.2700
      19.8000       20.2700
      19.8000       20.2700
      19.8000       20.2700
      19.8000       20.2700
      19.8000       20.2700
      19.8000       20.2700
      19.8000       20.2700
      19.8000       20.2700
      19.8000       20.2700
      19.8000       20.2700
      19.8000       20.2700
      19.8000       20.2700
      19.8000       20.2700
      19.8000       20.2700
      19.8000       20.2700
      19.8000       20.2700
      19.8000       20.2700
      19.8000       20.2700
      19.8000       20.2700
      19.8000       20.2700
      19.8000       20.2700
      19.8000       20.2700
      19.8000       20.2700
      19.8000       20.2700
      19.8000       20.2700
      19.8000       20.2700
      19.8000       20.2700
      19.8000       20.2700
      19.8000       20.2700
      19.8000       20.2700
      19.8000       20.2700
      19.8000       20.2700
      19.8000       20.2700
      19.8000       20.2700
      19.8000       20.2700
      19.8000       20.2700
      19.8000       20.2700
      19.8000       20.2700
      19.8000       20.2700
      19.8000       20.2700
      19.8000       20.2700
      19.8000       20.2700
      19.8000       20.2700
      19.8000       20.2700
      19.8000       20.2700
      19.8000       20.2700
      19.8000       20.2700
      19.8000       20.2700
      19.8000       20.2700
      19.8000       20.2700
      19.8000       20.2700
      19.8000       20.2700
      19.8000       20.2700
      19.8000       20.2700
      19.8000       20.2700
      19.8000       20.2700
      19.8000       20.2700
      19.8000       20.2700
      19.8000       20.2700
      19.8000       20.2700
      19.8000       20.2700
      19.8000       20.2700
      19.8000       20.2700
      19.8000       20.2700
      19.8000       20.2700
      19.8000       20.2700
      19.8000       20.2700
      19.8000       20.2700
      19.8000       20.2700
      19.8000       20.2700
      19.8000       20.2700
      19.8000       20.2700
      19.8000       20.2700
      19.8000       20.2700
      19.8000       20.2700
      19.8000       20.2700
      19.8000       20.2700
      19.8000       20.2700
      19.8000       20.2700
# background coefficients
       5.0660        0.8216
       5.0660        0.8216
       5.0660        0.8216
       5.0660        0.8216
       5.0660        0.8216
       5.0660        0.8216
       5.0660        0.8216
       5.0660        0.8216
       5.0660        0.8216
       5.0660        0.8216
       5.0660        0.8216
       5.0660        0.8216
       5.0660        0.8216
       5.0660        0.8216
       5.0660        0.8216
       5.0660        0.8216
       5.0660        0.8216
       5.0660        0.8216
       5.0660        0.8216
       5.0660        0.8216
       5.0660        0.8216
       5.0660        0.8216
       5.0660        0.8216
       5.0660        0.8216
       5.0660        0.8216
       5.0660        0.8216
       5.0660        0.8216
       5.0660        0.8216
       5.0660        0.8216
       5.0660        0.8216
       5.0660        0.8216
       5.0660        0.8216
       5.0660        0.8216
       5.0660        0.8216
       5.0660        0.8216
       5.0660        0.8216
       5.0660        0.8216
       5.0660        0.8216
       5.0660        0.8216
       5.0660        0.8216
       5.0660        0.8216
       5.0660        0.8216
       5.0660        0.8216
       5.0660        0.8216
       5.0660        0.8216
       5.0660        0.8216
       5.0660        0.8216
       5.0660        0.8216
       5.0660        0.8216
       5.0660        0.8216
       5.0660        0.8216
       5.0660        0.8216
       5.0660        0.8216
       5.0660        0.8216
       5.0660        0.8216
       5.0660        0.8216
       5.0660        0.8216
       5.0660        0.8216
       5.0660        0.8216
       5.0660        0.8216
       5.0660        0.8216
       5.0660        0.8216
       5.0660        0.8216
       5.0660        0.8216
       5.0660        0.8216
       5.0660        0.8216
       5.0660        0.8216
       5.0660        0.8216
       5.0660        0.8216
       5.0660        0.8216
       5.0660        0.8216
       5.0660        0.8216
       5.0660        0.8216
       5.0660        0.8216
       5.0660        0.8216
       5.0660        0.8216
       5.0660        0.8216
       5.0660        0.8216
       5.0660        0.8216
       5.0660        0.8216
       5.0660        0.8216
       5.0660        0.8216
       5.0660        0.8216
       5.0660        0.8216
       5.0660        0.8216
       5.0660        0.8216
       5.0660        0.8216
       5.0660        0.8216
       5.0660        0.8216
       5.0660        0.8216
# Peak positions (2 theta), intensity, half-width, weight Gauss/Lorentz (for pseudo-voigt),
# peak number        0
      20.0903        4.2339        0.0535        0.7500
      20.0921        3.1431        0.0535        0.7824
      20.0932        2.0642        0.0535        0.8092
      20.0938        4.9174        0.0535        0.8301
      20.0938       13.0915        0.0535        0.8445
      20.0931       23.5995        0.0535        0.8522
      20.0918       31.0349        0.0535        0.8531
      20.0900       31.6525        0.0535        0.8471
      20.0876       26.1192        0.0535        0.8343
      20.0847       18.7541        0.0535        0.8150
      20.0813       14.1170        0.0535        0.7896
      20.0776       13.8747        0.0535        0.7586
      20.0737       16.3110        0.0535        0.7225
      20.0695       18.4218        0.0535        0.6821
      20.0654       18.5100        0.0535        0.6381
      20.0612       17.1747        0.0535        0.5915
      20.0572       16.2709        0.0535        0.5431
      20.0534       17.1099        0.0535        0.4938
      20.0499       19.4982        0.0535        0.4447
      20.0468       22.1808        0.0535        0.3966
      20.0442       23.9986        0.0535        0.3506
      20.0421       24.6548        0.0535        0.3074
      20.0406       24.5646        0.0535        0.2680
      20.0397       24.1548        0.0535        0.2332
      20.0393       23.3888        0.0535        0.2035
      20.0397       21.9646        0.0535        0.1796
      20.0406       19.9385        0.0535        0.1619
      20.0421       18.0755        0.0535        0.1508
      20.0441       17.4247        0.0535        0.1465
      20.0466       18.3385        0.0535        0.1491
      20.0495       19.8196        0.0535        0.1585
      20.0528       20.0233        0.0535        0.1746
      20.0564       17.8313        0.0535        0.1969
      20.0601       14.2865        0.0535        0.2252
      20.0640       12.4161        0.0535        0.2589
      20.0680       15.0867        0.0535        0.2972
      20.0719       22.3212        0.0535        0.3395
      20.0757       30.3932        0.0535        0.3849
      20.0793       33.9126        0.0535        0.4325
      20.0827       29.6634        0.0535        0.4815
      20.0858       19.2031        0.0535        0.5308
      20.0886        7.9364        0.0535        0.5795
      20.0910        1.1957        0.0535        0.6267
      20.0930        0.4626        0.0535        0.6714
      20.0946        2.8546        0.0535        0.7128
      20.0957        4.2339        0.0535        0.7500
      20.0964        3.1431        0.0535        0.7824
      20.0967        2.0642        0.0535        0.8092
      20.0966        4.9174        0.0535        0.8301
      20.0961       13.0915        0.0535        0.8445
      20.0951       23.5995        0.0535        0.8522
      20.0938       31.0349        0.0535        0.8531
      20.0922       31.6525        0.0535        0.8471
      20.0902       26.1192        0.0535        0.8343
      20.0880       18.7541        0.0535        0.8150
      20.0855       14.1170        0.0535        0.7896
      20.0828       13.8747        0.0535        0.7586
      20.0799       16.3110        0.0535        0.7225
      20.0769       18.4218        0.0535        0.6821
      20.0738       18.5100        0.0535        0.6381
      20.0706       17.1747        0.0535        0.5915
      20.0674       16.2709        0.0535        0.5431
      20.0642       17.1099        0.0535        0.4938
      20.0611       19.4982        0.0535        0.4447
      20.0582       22.1808        0.0535        0.3966
      20.0554       23.9986        0.0535        0.3506
      20.0528       24.6548        0.0535        0.3074
      20.0505       24.5646        0.0535        0.2680
      20.0485       24.1548        0.0535        0.2332
      20.0469       23.3888        0.0535        0.2035
      20.0456       21.9646        0.0535        0.1796
      20.0447       19.9385        0.0535        0.1619
      20.0443       18.0755        0.0535        0.1508
      20.0444       17.4247        0.0535        0.1465
      20.0449       18.3385        0.0535        0.1491
      20.0459       19.8196        0.0535        0.1585
      20.0474       20.0233        0.0535        0.1746
      20.0493       17.8313        0.0535        0.1969
      20.0517       14.2865        0.0535        0.2252
      20.0544       12.4161        0.0535        0.2589
      20.0575       15.0867        0.0535        0.2972
      20.0608       22.3212        0.0535        0.3395
      20.0643       30.3932        0.0535        0.3849
      20.0680       33.9126        0.0535        0.4325
      20.0717       29.6634        0.0535        0.4815
      20.0754       19.2031        0.0535        0.5308
      20.0790        7.9364        0.0535        0.5795
      20.0823        1.1957        0.0535        0.6267
      20.0854        0.4626        0.0535        0.6714
      20.0881        2.8546        0.0535        0.7128
# Sub-patterns        3
# Number of peaks
       1
# Peak profile
       1
# Width factor
     15.00000
# Range in azimuth: nvalues, and values
        90
       0.0
       4.0
       8.0
      12.0
      16.0
      20.0
      24.0
      28.0
      32.0
      36.0
      40.0
      44.0
      48.0
      52.0
      56.0
      60.0
      64.0
      68.0
      72.0
      76.0
      80.0
      84.0
      88.0
      92.0
      96.0
     100.0
     104.0
     108.0
     112.0
     116.0
     120.0
     124.0
     128.0
     132.0
     136.0
     140.0
     144.0
     148.0
     152.0
     156.0
     160.0
     164.0
     168.0
     172.0
     176.0
     180.0
     184.0
     188.0
     192.0
     196.0
     200.0
     204.0
     208.0
     212.0
     216.0
     220.0
     224.0
     228.0
     232.0
     236.0
     240.0
     244.0
     248.0
     252.0
     256.0
     260.0
     264.0
     268.0
     272.0
     276.0
     280.0
     284.0
     288.0
     292.0
     296.0
     300.0
     304.0
     308.0
     312.0
     316.0
     320.0
     324.0
     328.0
     332.0
     336.0
     340.0
     344.0
     348.0
     352.0
     356.0
# background positions, in 2 theta (left/right)
      23.1001       23.5000
      23.1001       23.5000
      23.1001       23.5000
      23.1001       23.5000
      23.1001       23.5000
      23.1001       23.5000
      23.1001       23.5000
      23.1001       23.5000
      23.1001       23.5000
      23.1001       23.5000
      23.1001       23.5000
      23.1001       23.5000
      23.1001       23.5000
      23.1001       23.5000
      23.1001       23.5000
      23.1001       23.5000
      23.1001       23.5000
      23.1001       23.5000
      23.1001       23.5000
      23.1001       23.5000
      23.1001       23.5000
      23.1001       23.5000
      23.1001       23.5000
      23.1001       23.5000
      23.1001       23.5000
      23.1001       23.5000
      23.1001       23.5000
      23.1001       23.5000
      23.1001       23.5000
      23.1001       23.5000
      23.1001       23.5000
      23.1001       23.5000
      23.1001       23.5000
      23.1001       23.5000
      23.1001       23.5000
      23.1001       23.5000
      23.1001       23.5000
      23.1001       23.5000
      23.1001       23.5000
      23.1001       23.5000
      23.1001       23.5000
      23.1001       23.5000
      23.1001       23.5000
      23.1001       23.5000
      23.1001       23.5000
      23.1001       23.5000
      23.1001       23.5000
      23.1001       23.5000
      23.1001       23.5000
      23.1001       23.5000
      23.1001       23.5000
      23.1001       23.5000
      23.1001       23.5000
      23.1001       23.5000
      23.1001       23.5000
      23.1001       23.5000
      23.1001       23.5000
      23.1001       23.5000
      23.1001       23.5000
      23.1001       23.5000
      23.1001       23.5000
      23.1001       23.5000
      23.1001       23.5000
      23.1001       23.5000
      23.1001       23.5000
      23.1001       23.5000
      23.1001       23.5000
      23.1001       23.5000
      23.1001       23.5000
      23.1001       23.5000
      23.1001       23.5000
      23.1001       23.5000
      23.1001       23.5000
      23.1001       23.5000
      23.1001       23.5000
      23.1001       23.5000
      23.1001       23.5000
      23.1001       23.5000
      23.1001       23.5000
      23.1001       23.5000
      23.1001       23.5000
      23.1001       23.5000
      23.1001       23.5000
      23.1001       23.5000
      23.1001       23.5000
      23.1001       23.5000
      23.1001       23.5000
      23.1001       23.5000
      23.1001       23.5000
      23.1001       23.5000
# background coefficients
       6.1772       -4.4763
       6.1587       -4.3901
       6.1479       -4.2942
       6.1447       -4.1901
       6.1491       -4.0795
       6.1608       -3.9641
       6.1794       -3.8459
       6.2042       -3.7269
       6.2347       -3.6090
       6.2702       -3.4943
       6.3097       -3.3848
       6.3522       -3.2822
       6.3969       -3.1884
       6.4428       -3.1050
       6.4887       -3.0333
       6.5336       -2.9746
       6.5766       -2.9299
       6.6167       -2.8998
       6.6530       -2.8850
       6.6848       -2.8855
       6.7113       -2.9013
       6.7319       -2.9320
       6.7462       -2.9771
       6.7538       -3.0356
       6.7547       -3.1065
       6.7487       -3.1884
       6.7359       -3.2798
       6.7166       -3.3791
       6.6913       -3.4845
       6.6604       -3.5940
       6.6246       -3.7057
       6.5846       -3.8176
       6.5412       -3.9278
       6.4955       -4.0344
       6.4484       -4.1355
       6.4009       -4.2295
       6.3540       -4.3148
       6.3088       -4.3900
       6.2663       -4.4540
       6.2275       -4.5060
       6.1932       -4.5451
       6.1643       -4.5711
       6.1415       -4.5837
       6.1255       -4.5831
       6.1167       -4.5696
       6.1154       -4.5439
       6.1219       -4.5067
       6.1362       -4.4593
       6.1582       -4.4029
       6.1877       -4.3388
       6.2243       -4.2688
       6.2675       -4.1945
       6.3166       -4.1176
       6.3707       -4.0400
       6.4292       -3.9635
       6.4908       -3.8899
       6.5548       -3.8207
       6.6198       -3.7577
       6.6849       -3.7023
       6.7489       -3.6558
       6.8106       -3.6192
       6.8691       -3.5934
       6.9232       -3.5791
       6.9721       -3.5766
       7.0148       -3.5861
       7.0507       -3.6075
       7.0790       -3.6405
       7.0993       -3.6843
       7.1113       -3.7381
       7.1147       -3.8008
       7.1095       -3.8712
       7.0958       -3.9478
       7.0739       -4.0290
       7.0441       -4.1131
       7.0070       -4.1982
       6.9633       -4.2827
       6.9139       -4.3645
       6.8594       -4.4420
       6.8011       -4.5133
       6.7398       -4.5768
       6.6767       -4.6310
       6.6130       -4.6746
       6.5496       -4.7064
       6.4878       -4.7255
       6.4285       -4.7311
       6.3728       -4.7229
       6.3217       -4.7005
       6.2759       -4.6642
       6.2362       -4.6143
       6.2031       -4.5514
# Peak positions (2 theta), intensity, half-width, weight Gauss/Lorentz (for pseudo-voigt),
# peak number        0
      23.2449        8.3343        0.0566        0.4987
      23.2473        7.5751        0.0566        0.4987
      23.2491        6.0679        0.0566        0.4987
      23.2502        4.1299        0.0566        0.4987
      23.2506        2.3131        0.0566        0.4987
      23.2502        1.1852        0.0566        0.4987
      23.2492        0.8988        0.0566        0.4987
      23.2474        1.0184        0.0566        0.4987
      23.2451        0.9173        0.0566        0.4987
      23.2421        0.4589        0.0566        0.4987
      23.2386        0.2796        0.0566        0.4987
      23.2346        1.2870        0.0566        0.4987
      23.2302        3.7500        0.0566        0.4987
      23.2256        6.8195        0.0566        0.4987
      23.2207        8.9832        0.0566        0.4987
      23.2158        9.1174        0.0566        0.4987
      23.2109        7.2711        0.0566        0.4987
      23.2060        4.5737        0.0566        0.4987
      23.2014        2.4253        0.0566        0.4987
      23.1971        1.6567        0.0566        0.4987
      23.1931        2.2165        0.0566        0.4987
      23.1897        3.4201        0.0566        0.4987
      23.1868        4.4244        0.0566        0.4987
      23.1845        4.6342        0.0566        0.4987
      23.1828        3.9632        0.0566        0.4987
      23.1818        2.9220        0.0566        0.4987
      23.1816        2.4177        0.0566        0.4987
      23.1821        3.2054        0.0566        0.4987
      23.1833        5.2495        0.0566        0.4987
      23.1852        7.5259        0.0566        0.4987
      23.1878        8.5930        0.0566        0.4987
      23.1910        7.6165        0.0566        0.4987
      23.1948        5.0322        0.0566        0.4987
      23.1991        2.2355        0.0566        0.4987
      23.2038        0.5158        0.0566        0.4987
      23.2089        0.1450        0.0566        0.4987
      23.2142        0.3946        0.0566        0.4987
      23.2196        0.3931        0.0566        0.4987
      23.2251       -0.0159        0.0566        0.4987
      23.2305       -0.1944        0.0566        0.4987
      23.2357        0.6076        0.0566        0.4987
      23.2407        2.5196        0.0566        0.4987
      23.2453        4.9354        0.0566        0.4987
      23.2494        7.0051        0.0566        0.4987
      23.2531        8.1780        0.0566        0.4987
      23.2561        8.3343        0.0566        0.4987
      23.2584        7.5751        0.0566        0.4987
      23.2600        6.0679        0.0566        0.4987
      23.2609        4.1299        0.0566        0.4987
      23.2610        2.3131        0.0566        0.4987
      23.2604        1.1852        0.0566        0.4987
      23.2590        0.8988        0.0566        0.4987
      23.2569        1.0184        0.0566        0.4987
      23.2540        0.9173        0.0566        0.4987
      23.2505        0.4589        0.0566        0.4987
      23.2465        0.2796        0.0566        0.4987
      23.2419        1.2870        0.0566        0.4987
      23.2370        3.7500        0.0566        0.4987
      23.2317        6.8195        0.0566        0.4987
      23.2262        8.9832        0.0566        0.4987
      23.2205        9.1174        0.0566        0.4987
      23.2149        7.2711        0.0566        0.4987
      23.2093        4.5737        0.0566        0.4987
      23.2039        2.4253        0.0566        0.4987
      23.1988        1.6567        0.0566        0.4987
      23.1941        2.2165        0.0566        0.4987
      23.1899        3.4201        0.0566        0.4987
      23.1862        4.4244        0.0566        0.4987
      23.1831        4.6342        0.0566        0.4987
      23.1807        3.9632        0.0566        0.4987
      23.1790        2.9220        0.0566        0.4987
      23.1780        2.4177        0.0566        0.4987
      23.1777        3.2054        0.0566        0.4987
      23.1782        5.2495        0.0566        0.4987
      23.1795        7.5259        0.0566        0.4987
      23.1814        8.5930        0.0566        0.4987
      23.1840        7.6165        0.0566        0.4987
      23.1872        5.0322        0.0566        0.4987
      23.1910        2.2355        0.0566        0.4987
      23.1952        0.5158        0.0566        0.4987
      23.1997        0.1450        0.0566        0.4987
      23.2046        0.3946        0.0566        0.4987
      23.2096        0.3931        0.0566        0.4987
      23.2148       -0.0159        0.0566        0.4987
      23.2199       -0.1944        0.0566        0.4987
      23.2249        0.6076        0.0566        0.4987
      23.2297        2.5196        0.0566        0.4987
      23.2342        4.9354        0.0566        0.4987
      23.2382        7.0051        0.0566        0.4987
      23.2418        8.1780        0.0566        0.4987
# Sub-patterns        4
# Number of peaks
       1
# Peak profile
       1
# Width factor
     15.00000
# Range in azimuth: nvalues, and values
        90
       0.0
       4.0
       8.0
      12.0
      16.0
      20.0
      24.0
      28.0
      32.0
      36.0
      40.0
      44.0
      48.0
      52.0
      56.0
      60.0
      64.0
      68.0
      72.0
      76.0
      80.0
      84.0
      88.0
      92.0
      96.0
     100.0
     104.0
     108.0
     112.0
     116.0
     120.0
     124.0
     128.0
     132.0
     136.0
     140.0
     144.0
     148.0
     152.0
     156.0
     160.0
     164.0
     168.0
     172.0
     176.0
     180.0
     184.0
     188.0
     192.0
     196.0
     200.0
     204.0
     208.0
     212.0
     216.0
     220.0
     224.0
     228.0
     232.0
     236.0
     240.0
     244.0
     248.0
     252.0
     256.0
     260.0
     264.0
     268.0
     272.0
     276.0
     280.0
     284.0
     288.0
     292.0
     296.0
     300.0
     304.0
     308.0
     312.0
     316.0
     320.0
     324.0
     328.0
     332.0
     336.0
     340.0
     344.0
     348.0
     352.0
     356.0
# background positions, in 2 theta (left/right)
      25.7000       26.3999
      25.7000       26.3999
      25.7000       26.3999
      25.7000       26.3999
      25.7000       26.3999
      25.7000       26.3999
      25.7000       26.3999
      25.7000       26.3999
      25.7000       26.3999
      25.7000       26.3999
      25.7000       26.3999
      25.7000       26.3999
      25.7000       26.3999
      25.7000       26.3999
      25.7000       26.3999
      25.7000       26.3999
      25.7000       26.3999
      25.7000       26.3999
      25.7000       26.3999
      25.7000       26.3999
      25.7000       26.3999
      25.7000       26.3999
      25.7000       26.3999
      25.7000       26.3999
      25.7000       26.3999
      25.7000       26.3999
      25.7000       26.3999
      25.7000       26.3999
      25.7000       26.3999
      25.7000       26.3999
      25.7000       26.3999
      25.7000       26.3999
      25.7000       26.3999
      25.7000       26.3999
      25.7000       26.3999
      25.7000       26.3999
      25.7000       26.3999
      25.7000       26.3999
      25.7000       26.3999
      25.7000       26.3999
      25.7000       26.3999
      25.7000       26.3999
      25.7000       26.3999
      25.7000       26.3999
      25.7000       26.3999
      25.7000       26.3999
      25.7000       26.3999
      25.7000       26.3999
      25.7000       26.3999
      25.7000       26.3999
      25.7000       26.3999
      25.7000       26.3999
      25.7000       26.3999
      25.7000       26.3999
      25.7000       26.3999
      25.7000       26.3999
      25.7000       26.3999
      25.7000       26.3999
      25.7000       26.3999
      25.7000       26.3999
      25.7000       26.3999
      25.7000       26.3999
      25.7000       26.3999
      25.7000       26.3999
      25.7000       26.3999
      25.7000       26.3999
      25.7000       26.3999
      25.7000       26.3999
      25.7000       26.3999
      25.7000       26.3999
      25.7000       26.3999
      25.7000       26.3999
      25.7000       26.3999
      25.7000       26.3999
      25.7000       26.3999
      25.7000       26.3999
      25.7000       26.3999
      25.7000       26.3999
      25.7000       26.3999
      25.7000       26.3999
      25.7000       26.3999
      25.7000       26.3999
      25.7000       26.3999
      25.7000       26.3999
      25.7000       26.3999
      25.7000       26.3999
      25.7000       26.3999
      25.7000       26.3999
      25.7000       26.3999
      25.7000       26.3999
# background coefficients
       4.2019       -0.6303
       4.2570       -0.6881
       4.3241       -0.7049
       4.4013       -0.6812
       4.4867       -0.6181
       4.5781       -0.5175
       4.6734       -0.3821
       4.7705       -0.2150
       4.8672       -0.0202
       4.9616        0.1980
       5.0518        0.4349
       5.1361        0.6853
       5.2129        0.9438
       5.2810        1.2052
       5.3393        1.4638
       5.3871        1.7144
       5.4238        1.9517
       5.4493        2.1710
       5.4637        2.3677
       5.4672        2.5380
       5.4607        2.6784
       5.4449        2.7861
       5.4210        2.8591
       5.3904        2.8961
       5.3546        2.8964
       5.3154        2.8602
       5.2744        2.7884
       5.2336        2.6827
       5.1948        2.5455
       5.1600        2.3799
       5.1309        2.1893
       5.1092        1.9781
       5.0966        1.7507
       5.0945        1.5122
       5.1040        1.2678
       5.1261        1.0227
       5.1616        0.7824
       5.2108        0.5523
       5.2740        0.3374
       5.3508        0.1426
       5.4410       -0.0276
       5.5436       -0.1691
       5.6576       -0.2784
       5.7818       -0.3528
       5.9145       -0.3900
       6.0539       -0.3886
       6.1981       -0.3478
       6.3448       -0.2678
       6.4919       -0.1494
       6.6368        0.0058
       6.7774        0.1955
       6.9111        0.4165
       7.0356        0.6653
       7.1488        0.9376
       7.2486        1.2286
       7.3330        1.5332
       7.4004        1.8459
       7.4493        2.1613
       7.4785        2.4734
       7.4873        2.7767
       7.4751        3.0655
       7.4417        3.3344
       7.3872        3.5786
       7.3121        3.7934
       7.2172        3.9748
       7.1036        4.1193
       6.9729        4.2241
       6.8266        4.2872
       6.6667        4.3073
       6.4955        4.2838
       6.3151        4.2171
       6.1283        4.1082
       5.9374        3.9590
       5.7451        3.7721
       5.5541        3.5506
       5.3669        3.2987
       5.1860        3.0206
       5.0137        2.7213
       4.8524        2.4061
       4.7038        2.0806
       4.5699        1.7506
       4.4520        1.4218
       4.3513        1.1000
       4.2687        0.7908
       4.2047        0.4995
       4.1595        0.2311
       4.1331       -0.0099
       4.1251       -0.2196
       4.1346       -0.3945
       4.1606       -0.5321
# Peak positions (2 theta), intensity, half-width, weight Gauss/Lorentz (for pseudo-voigt),
# peak number        0
      26.0649        6.6156        0.0973        0.5000
      26.0672        6.6537        0.0973        0.5000
      26.0684        6.6571        0.0973        0.5000
      26.0684        6.6256        0.0973        0.5000
      26.0673        6.5599        0.0973        0.5000
      26.0650        6.4612        0.0973        0.5000
      26.0616        6.3316        0.0973        0.5000
      26.0572        6.1734        0.0973        0.5000
      26.0519        5.9898        0.0973        0.5000
      26.0458        5.7843        0.0973        0.5000
      26.0391        5.5610        0.0973        0.5000
      26.0318        5.3242        0.0973        0.5000
      26.0242        5.0785        0.0973        0.5000
      26.0164        4.8287        0.0973        0.5000
      26.0086        4.5796        0.0973        0.5000
      26.0009        4.3361        0.0973        0.5000
      25.9935        4.1030        0.0973        0.5000
      25.9866        3.8847        0.0973        0.5000
      25.9803        3.6856        0.0973        0.5000
      25.9747        3.5094        0.0973        0.5000
      25.9700        3.3597        0.0973        0.5000
      25.9663        3.2393        0.0973        0.5000
      25.9636        3.1506        0.0973        0.5000
      25.9620        3.0953        0.0973        0.5000
      25.9616        3.0745        0.0973        0.5000
      25.9623        3.0886        0.0973        0.5000
      25.9643        3.1373        0.0973        0.5000
      25.9674        3.2197        0.0973        0.5000
      25.9716        3.3342        0.0973        0.5000
      25.9768        3.4784        0.0973        0.5000
      25.9829        3.6497        0.0973        0.5000
      25.9899        3.8448        0.0973        0.5000
      25.9976        4.0597        0.0973        0.5000
      26.0058        4.2903        0.0973        0.5000
      26.0144        4.5321        0.0973        0.5000
      26.0233        4.7805        0.0973        0.5000
      26.0322        5.0306        0.0973        0.5000
      26.0410        5.2774        0.0973        0.5000
      26.0495        5.5163        0.0973        0.5000
      26.0576        5.7426        0.0973        0.5000
      26.0651        5.9518        0.0973        0.5000
      26.0718        6.1399        0.0973        0.5000
      26.0777        6.3032        0.0973        0.5000
      26.0825        6.4386        0.0973        0.5000
      26.0862        6.5434        0.0973        0.5000
      26.0887        6.6156        0.0973        0.5000
      26.0900        6.6537        0.0973        0.5000
      26.0900        6.6571        0.0973        0.5000
      26.0887        6.6256        0.0973        0.5000
      26.0861        6.5599        0.0973        0.5000
      26.0824        6.4612        0.0973        0.5000
      26.0774        6.3316        0.0973        0.5000
      26.0713        6.1734        0.0973        0.5000
      26.0643        5.9898        0.0973        0.5000
      26.0565        5.7843        0.0973        0.5000
      26.0479        5.5610        0.0973        0.5000
      26.0388        5.3242        0.0973        0.5000
      26.0292        5.0785        0.0973        0.5000
      26.0195        4.8287        0.0973        0.5000
      26.0097        4.5796        0.0973        0.5000
      26.0001        4.3361        0.0973        0.5000
      25.9908        4.1030        0.0973        0.5000
      25.9819        3.8847        0.0973        0.5000
      25.9737        3.6856        0.0973        0.5000
      25.9663        3.5094        0.0973        0.5000
      25.9597        3.3597        0.0973        0.5000
      25.9542        3.2393        0.0973        0.5000
      25.9498        3.1506        0.0973        0.5000
      25.9466        3.0953        0.0973        0.5000
      25.9446        3.0745        0.0973        0.5000
      25.9439        3.0886        0.0973        0.5000
      25.9444        3.1373        0.0973        0.5000
      25.9462        3.2197        0.0973        0.5000
      25.9492        3.3342        0.0973        0.5000
      25.9533        3.4784        0.0973        0.5000
      25.9585        3.6497        0.0973        0.5000
      25.9646        3.8448        0.0973        0.5000
      25.9715        4.0597        0.0973        0.5000
      25.9791        4.2903        0.0973        0.5000
      25.9872        4.5321        0.0973        0.5000
      25.9957        4.7805        0.0973        0.5000
      26.0044        5.0306        0.0973        0.5000
      26.0131        5.2774        0.0973        0.5000
      26.0216        5.5163        0.0973        0.5000
      26.0299        5.7426        0.0973        0.5000
      26.0377        5.9518        0.0973        0.5000
      26.0449        6.1399        0.0973        0.5000
      26.0513        6.3032        0.0973        0.5000
      26.0568        6.4386        0.0973        0.5000
      26.0614        6.5434        0.0973        0.5000
