# File version
1
# Peak profile (0: gauss, 1: pseudo-voigt, 2: lorentz)
       0
# Number of sub-patterns
       5
# Sub-patterns        0
# Number of peaks
       2
# Peak profile
       1
# Width factor
     15.00000
# Range in azimuth: nvalues, and values
        90
       0.0
       4.0
       8.0
      12.0
      16.0
      20.0
      24.0
      28.0
      32.0
      36.0
      40.0
      44.0
      48.0
      52.0
      56.0
      60.0
      64.0
      68.0
      72.0
      76.0
      80.0
      84.0
      88.0
      92.0
      96.0
     100.0
     104.0
     108.0
     112.0
     116.0
     120.0
     124.0
     128.0
     132.0
     136.0
     140.0
     144.0
     148.0
     152.0
     156.0
     160.0
     164.0
     168.0
     172.0
     176.0
     180.0
     184.0
     188.0
     192.0
     196.0
     200.0
     204.0
     208.0
     212.0
     216.0
     220.0
     224.0
     228.0
     232.0
     236.0
     240.0
     244.0
     248.0
     252.0
     256.0
     260.0
     264.0
     268.0
     272.0
     276.0
     280.0
     284.0
     288.0
     292.0
     296.0
     300.0
     304.0
     308.0
     312.0
     316.0
     320.0
     324.0
     328.0
     332.0
     336.0
     340.0
     344.0
     348.0
     352.0
     356.0
# background positions, in 2 theta (left/right)
      10.8000       11.6700
      10.8000       11.6700
      10.8000       11.6700
      10.8000       11.6700
      10.8000       11.6700
      10.8000       11.6700
      10.8000       11.6700
      10.8000       11.6700
      10.8000       11.6700
      10.8000       11.6700
      10.8000       11.6700
      10.8000       11.6700
      10.8000       11.6700
      10.8000       11.6700
      10.8000       11.6700
      10.8000       11.6700
      10.8000       11.6700
      10.8000       11.6700
      10.8000       11.6700
      10.8000       11.6700
      10.8000       11.6700
      10.8000       11.6700
      10.8000       11.6700
      10.8000       11.6700
      10.8000       11.6700
      10.8000       11.6700
      10.8000       11.6700
      10.8000       11.6700
      10.8000       11.6700
      10.8000       11.6700
      10.8000       11.6700
      10.8000       11.6700
      10.8000       11.6700
      10.8000       11.6700
      10.8000       11.6700
      10.8000       11.6700
      10.8000       11.6700
      10.8000       11.6700
      10.8000       11.6700
      10.8000       11.6700
      10.8000       11.6700
      10.8000       11.6700
      10.8000       11.6700
      10.8000       11.6700
      10.8000       11.6700
      10.8000       11.6700
      10.8000       11.6700
      10.8000       11.6700
      10.8000       11.6700
      10.8000       11.6700
      10.8000       11.6700
      10.8000       11.6700
      10.8000       11.6700
      10.8000       11.6700
      10.8000       11.6700
      10.8000       11.6700
      10.8000       11.6700
      10.8000       11.6700
      10.8000       11.6700
      10.8000       11.6700
      10.8000       11.6700
      10.8000       11.6700
      10.8000       11.6700
      10.8000       11.6700
      10.8000       11.6700
      10.8000       11.6700
      10.8000       11.6700
      10.8000       11.6700
      10.8000       11.6700
      10.8000       11.6700
      10.8000       11.6700
      10.8000       11.6700
      10.8000       11.6700
      10.8000       11.6700
      10.8000       11.6700
      10.8000       11.6700
      10.8000       11.6700
      10.8000       11.6700
      10.8000       11.6700
      10.8000       11.6700
      10.8000       11.6700
      10.8000       11.6700
      10.8000       11.6700
      10.8000       11.6700
      10.8000       11.6700
      10.8000       11.6700
      10.8000       11.6700
      10.8000       11.6700
      10.8000       11.6700
      10.8000       11.6700
# background coefficients
       4.2239        4.0845
       4.2239        4.0845
       4.2239        4.0845
       4.2239        4.0845
       4.2239        4.0845
       4.2239        4.0845
       4.2239        4.0845
       4.2239        4.0845
       4.2239        4.0845
       4.2239        4.0845
       4.2239        4.0845
       4.2239        4.0845
       4.2239        4.0845
       4.2239        4.0845
       4.2239        4.0845
       4.2239        4.0845
       4.2239        4.0845
       4.2239        4.0845
       4.2239        4.0845
       4.2239        4.0845
       4.2239        4.0845
       4.2239        4.0845
       4.2239        4.0845
       4.2239        4.0845
       4.2239        4.0845
       4.2239        4.0845
       4.2239        4.0845
       4.2239        4.0845
       4.2239        4.0845
       4.2239        4.0845
       4.2239        4.0845
       4.2239        4.0845
       4.2239        4.0845
       4.2239        4.0845
       4.2239        4.0845
       4.2239        4.0845
       4.2239        4.0845
       4.2239        4.0845
       4.2239        4.0845
       4.2239        4.0845
       4.2239        4.0845
       4.2239        4.0845
       4.2239        4.0845
       4.2239        4.0845
       4.2239        4.0845
       4.2239        4.0845
       4.2239        4.0845
       4.2239        4.0845
       4.2239        4.0845
       4.2239        4.0845
       4.2239        4.0845
       4.2239        4.0845
       4.2239        4.0845
       4.2239        4.0845
       4.2239        4.0845
       4.2239        4.0845
       4.2239        4.0845
       4.2239        4.0845
       4.2239        4.0845
       4.2239        4.0845
       4.2239        4.0845
       4.2239        4.0845
       4.2239        4.0845
       4.2239        4.0845
       4.2239        4.0845
       4.2239        4.0845
       4.2239        4.0845
       4.2239        4.0845
       4.2239        4.0845
       4.2239        4.0845
       4.2239        4.0845
       4.2239        4.0845
       4.2239        4.0845
       4.2239        4.0845
       4.2239        4.0845
       4.2239        4.0845
       4.2239        4.0845
       4.2239        4.0845
       4.2239        4.0845
       4.2239        4.0845
       4.2239        4.0845
       4.2239        4.0845
       4.2239        4.0845
       4.2239        4.0845
       4.2239        4.0845
       4.2239        4.0845
       4.2239        4.0845
       4.2239        4.0845
       4.2239        4.0845
       4.2239        4.0845
# Peak positions (2 theta), intensity, half-width, weight Gauss/Lorentz (for pseudo-voigt),
# peak number        0
      11.2016       44.5869        0.0367        0.1000
      11.2010       44.4941        0.0367        0.1000
      11.2003       44.4802        0.0367        0.1000
      11.1995       44.5455        0.0367        0.1000
      11.1985       44.6886        0.0367        0.1000
      11.1974       44.9068        0.0367        0.1000
      11.1962       45.1960        0.0367        0.1000
      11.1949       45.5503        0.0367        0.1000
      11.1936       45.9630        0.0367        0.1000
      11.1922       46.4259        0.0367        0.1000
      11.1909       46.9302        0.0367        0.1000
      11.1896       47.4660        0.0367        0.1000
      11.1883       48.0228        0.0367        0.1000
      11.1871       48.5898        0.0367        0.1000
      11.1861       49.1560        0.0367        0.1000
      11.1851       49.7103        0.0367        0.1000
      11.1844       50.2420        0.0367        0.1000
      11.1838       50.7408        0.0367        0.1000
      11.1833       51.1968        0.0367        0.1000
      11.1831       51.6013        0.0367        0.1000
      11.1831       51.9463        0.0367        0.1000
      11.1834       52.2252        0.0367        0.1000
      11.1838       52.4325        0.0367        0.1000
      11.1844       52.5641        0.0367        0.1000
      11.1852       52.6176        0.0367        0.1000
      11.1863       52.5919        0.0367        0.1000
      11.1874       52.4874        0.0367        0.1000
      11.1887       52.3063        0.0367        0.1000
      11.1901       52.0520        0.0367        0.1000
      11.1916       51.7295        0.0367        0.1000
      11.1931       51.3451        0.0367        0.1000
      11.1946       50.9062        0.0367        0.1000
      11.1961       50.4214        0.0367        0.1000
      11.1976       49.9001        0.0367        0.1000
      11.1989       49.3525        0.0367        0.1000
      11.2002       48.7892        0.0367        0.1000
      11.2013       48.2212        0.0367        0.1000
      11.2022       47.6596        0.0367        0.1000
      11.2030       47.1152        0.0367        0.1000
      11.2035       46.5987        0.0367        0.1000
      11.2038       46.1202        0.0367        0.1000
      11.2040       45.6889        0.0367        0.1000
      11.2039       45.3132        0.0367        0.1000
      11.2036       45.0005        0.0367        0.1000
      11.2031       44.7568        0.0367        0.1000
      11.2024       44.5869        0.0367        0.1000
      11.2015       44.4941        0.0367        0.1000
      11.2005       44.4802        0.0367        0.1000
      11.1993       44.5455        0.0367        0.1000
      11.1981       44.6886        0.0367        0.1000
      11.1967       44.9068        0.0367        0.1000
      11.1954       45.1960        0.0367        0.1000
      11.1940       45.5503        0.0367        0.1000
      11.1926       45.9630        0.0367        0.1000
      11.1913       46.4259        0.0367        0.1000
      11.1900       46.9302        0.0367        0.1000
      11.1888       47.4660        0.0367        0.1000
      11.1877       48.0228        0.0367        0.1000
      11.1867       48.5898        0.0367        0.1000
      11.1859       49.1560        0.0367        0.1000
      11.1853       49.7103        0.0367        0.1000
      11.1848       50.2420        0.0367        0.1000
      11.1844       50.7408        0.0367        0.1000
      11.1843       51.1968        0.0367        0.1000
      11.1843       51.6013        0.0367        0.1000
      11.1845       51.9463        0.0367        0.1000
      11.1848       52.2252        0.0367        0.1000
      11.1853       52.4325        0.0367        0.1000
      11.1859       52.5641        0.0367        0.1000
      11.1867       52.6176        0.0367        0.1000
      11.1876       52.5919        0.0367        0.1000
      11.1886       52.4874        0.0367        0.1000
      11.1896       52.3063        0.0367        0.1000
      11.1907       52.0520        0.0367        0.1000
      11.1919       51.7295        0.0367        0.1000
      11.1931       51.3451        0.0367        0.1000
      11.1942       50.9062        0.0367        0.1000
      11.1954       50.4214        0.0367        0.1000
      11.1965       49.9001        0.0367        0.1000
      11.1976       49.3525        0.0367        0.1000
      11.1986       48.7892        0.0367        0.1000
      11.1995       48.2212        0.0367        0.1000
      11.2003       47.6596        0.0367        0.1000
      11.2010       47.1152        0.0367        0.1000
      11.2016       46.5987        0.0367        0.1000
      11.2020       46.1202        0.0367        0.1000
      11.2022       45.6889        0.0367        0.1000
      11.2023       45.3132        0.0367        0.1000
      11.2022       45.0005        0.0367        0.1000
      11.2020       44.7568        0.0367        0.1000
# peak number        1
      11.5588      764.2252        0.0344        0.6957
      11.5594      648.4374        0.0344        0.6957
      11.5599      364.7252        0.0344        0.6957
      11.5601      168.0095        0.0344        0.6957
      11.5602       91.0989        0.0344        0.6957
      11.5600       52.7328        0.0344        0.6957
      11.5595       30.8061        0.0344        0.6957
      11.5588       23.2920        0.0344        0.6957
      11.5579       25.2116        0.0344        0.6957
      11.5568       24.5502        0.0344        0.6957
      11.5555       26.8363        0.0344        0.6957
      11.5540       54.9863        0.0344        0.6957
      11.5523       94.5945        0.0344        0.6957
      11.5505      136.6709        0.0344        0.6957
      11.5486      187.7597        0.0344        0.6957
      11.5467      206.0483        0.0344        0.6957
      11.5448      166.2233        0.0344        0.6957
      11.5429      104.7325        0.0344        0.6957
      11.5412       58.4586        0.0344        0.6957
      11.5395       45.7735        0.0344        0.6957
      11.5381       56.8448        0.0344        0.6957
      11.5368       68.5655        0.0344        0.6957
      11.5359       77.4987        0.0344        0.6957
      11.5352       73.0839        0.0344        0.6957
      11.5349       56.6663        0.0344        0.6957
      11.5349       57.1424        0.0344        0.6957
      11.5353       71.8211        0.0344        0.6957
      11.5360       90.1313        0.0344        0.6957
      11.5371      128.8695        0.0344        0.6957
      11.5385      182.9322        0.0344        0.6957
      11.5403      212.5712        0.0344        0.6957
      11.5424      177.8216        0.0344        0.6957
      11.5447       97.7833        0.0344        0.6957
      11.5472       44.3543        0.0344        0.6957
      11.5499       29.3652        0.0344        0.6957
      11.5527       18.9256        0.0344        0.6957
      11.5555       16.0084        0.0344        0.6957
      11.5584       18.8572        0.0344        0.6957
      11.5611       21.5067        0.0344        0.6957
      11.5637       33.6614        0.0344        0.6957
      11.5661       49.1709        0.0344        0.6957
      11.5683       86.9537        0.0344        0.6957
      11.5702      183.7680        0.0344        0.6957
      11.5718      357.5455        0.0344        0.6957
      11.5730      602.3892        0.0344        0.6957
      11.5738      764.2252        0.0344        0.6957
      11.5742      648.4374        0.0344        0.6957
      11.5742      364.7252        0.0344        0.6957
      11.5739      168.0095        0.0344        0.6957
      11.5731       91.0989        0.0344        0.6957
      11.5720       52.7328        0.0344        0.6957
      11.5706       30.8061        0.0344        0.6957
      11.5689       23.2920        0.0344        0.6957
      11.5669       25.2116        0.0344        0.6957
      11.5647       24.5502        0.0344        0.6957
      11.5624       26.8363        0.0344        0.6957
      11.5599       54.9863        0.0344        0.6957
      11.5574       94.5945        0.0344        0.6957
      11.5549      136.6709        0.0344        0.6957
      11.5525      187.7597        0.0344        0.6957
      11.5501      206.0483        0.0344        0.6957
      11.5478      166.2233        0.0344        0.6957
      11.5458      104.7325        0.0344        0.6957
      11.5438       58.4586        0.0344        0.6957
      11.5421       45.7735        0.0344        0.6957
      11.5407       56.8448        0.0344        0.6957
      11.5395       68.5655        0.0344        0.6957
      11.5385       77.4987        0.0344        0.6957
      11.5378       73.0839        0.0344        0.6957
      11.5374       56.6663        0.0344        0.6957
      11.5372       57.1424        0.0344        0.6957
      11.5372       71.8211        0.0344        0.6957
      11.5375       90.1313        0.0344        0.6957
      11.5380      128.8695        0.0344        0.6957
      11.5387      182.9322        0.0344        0.6957
      11.5395      212.5712        0.0344        0.6957
      11.5405      177.8216        0.0344        0.6957
      11.5417       97.7833        0.0344        0.6957
      11.5430       44.3543        0.0344        0.6957
      11.5443       29.3652        0.0344        0.6957
      11.5458       18.9256        0.0344        0.6957
      11.5473       16.0084        0.0344        0.6957
      11.5488       18.8572        0.0344        0.6957
      11.5503       21.5067        0.0344        0.6957
      11.5517       33.6614        0.0344        0.6957
      11.5532       49.1709        0.0344        0.6957
      11.5545       86.9537        0.0344        0.6957
      11.5558      183.7680        0.0344        0.6957
      11.5569      357.5455        0.0344        0.6957
      11.5579      602.3892        0.0344        0.6957
# Sub-patterns        1
# Number of peaks
       1
# Peak profile
       1
# Width factor
     15.00000
# Range in azimuth: nvalues, and values
        90
       0.0
       4.0
       8.0
      12.0
      16.0
      20.0
      24.0
      28.0
      32.0
      36.0
      40.0
      44.0
      48.0
      52.0
      56.0
      60.0
      64.0
      68.0
      72.0
      76.0
      80.0
      84.0
      88.0
      92.0
      96.0
     100.0
     104.0
     108.0
     112.0
     116.0
     120.0
     124.0
     128.0
     132.0
     136.0
     140.0
     144.0
     148.0
     152.0
     156.0
     160.0
     164.0
     168.0
     172.0
     176.0
     180.0
     184.0
     188.0
     192.0
     196.0
     200.0
     204.0
     208.0
     212.0
     216.0
     220.0
     224.0
     228.0
     232.0
     236.0
     240.0
     244.0
     248.0
     252.0
     256.0
     260.0
     264.0
     268.0
     272.0
     276.0
     280.0
     284.0
     288.0
     292.0
     296.0
     300.0
     304.0
     308.0
     312.0
     316.0
     320.0
     324.0
     328.0
     332.0
     336.0
     340.0
     344.0
     348.0
     352.0
     356.0
# background positions, in 2 theta (left/right)
      16.1000       16.6000
      16.1000       16.6000
      16.1000       16.6000
      16.1000       16.6000
      16.1000       16.6000
      16.1000       16.6000
      16.1000       16.6000
      16.1000       16.6000
      16.1000       16.6000
      16.1000       16.6000
      16.1000       16.6000
      16.1000       16.6000
      16.1000       16.6000
      16.1000       16.6000
      16.1000       16.6000
      16.1000       16.6000
      16.1000       16.6000
      16.1000       16.6000
      16.1000       16.6000
      16.1000       16.6000
      16.1000       16.6000
      16.1000       16.6000
      16.1000       16.6000
      16.1000       16.6000
      16.1000       16.6000
      16.1000       16.6000
      16.1000       16.6000
      16.1000       16.6000
      16.1000       16.6000
      16.1000       16.6000
      16.1000       16.6000
      16.1000       16.6000
      16.1000       16.6000
      16.1000       16.6000
      16.1000       16.6000
      16.1000       16.6000
      16.1000       16.6000
      16.1000       16.6000
      16.1000       16.6000
      16.1000       16.6000
      16.1000       16.6000
      16.1000       16.6000
      16.1000       16.6000
      16.1000       16.6000
      16.1000       16.6000
      16.1000       16.6000
      16.1000       16.6000
      16.1000       16.6000
      16.1000       16.6000
      16.1000       16.6000
      16.1000       16.6000
      16.1000       16.6000
      16.1000       16.6000
      16.1000       16.6000
      16.1000       16.6000
      16.1000       16.6000
      16.1000       16.6000
      16.1000       16.6000
      16.1000       16.6000
      16.1000       16.6000
      16.1000       16.6000
      16.1000       16.6000
      16.1000       16.6000
      16.1000       16.6000
      16.1000       16.6000
      16.1000       16.6000
      16.1000       16.6000
      16.1000       16.6000
      16.1000       16.6000
      16.1000       16.6000
      16.1000       16.6000
      16.1000       16.6000
      16.1000       16.6000
      16.1000       16.6000
      16.1000       16.6000
      16.1000       16.6000
      16.1000       16.6000
      16.1000       16.6000
      16.1000       16.6000
      16.1000       16.6000
      16.1000       16.6000
      16.1000       16.6000
      16.1000       16.6000
      16.1000       16.6000
      16.1000       16.6000
      16.1000       16.6000
      16.1000       16.6000
      16.1000       16.6000
      16.1000       16.6000
      16.1000       16.6000
# background coefficients
       5.0125        0.3149
       5.0125        0.3149
       5.0125        0.3149
       5.0125        0.3149
       5.0125        0.3149
       5.0125        0.3149
       5.0125        0.3149
       5.0125        0.3149
       5.0125        0.3149
       5.0125        0.3149
       5.0125        0.3149
       5.0125        0.3149
       5.0125        0.3149
       5.0125        0.3149
       5.0125        0.3149
       5.0125        0.3149
       5.0125        0.3149
       5.0125        0.3149
       5.0125        0.3149
       5.0125        0.3149
       5.0125        0.3149
       5.0125        0.3149
       5.0125        0.3149
       5.0125        0.3149
       5.0125        0.3149
       5.0125        0.3149
       5.0125        0.3149
       5.0125        0.3149
       5.0125        0.3149
       5.0125        0.3149
       5.0125        0.3149
       5.0125        0.3149
       5.0125        0.3149
       5.0125        0.3149
       5.0125        0.3149
       5.0125        0.3149
       5.0125        0.3149
       5.0125        0.3149
       5.0125        0.3149
       5.0125        0.3149
       5.0125        0.3149
       5.0125        0.3149
       5.0125        0.3149
       5.0125        0.3149
       5.0125        0.3149
       5.0125        0.3149
       5.0125        0.3149
       5.0125        0.3149
       5.0125        0.3149
       5.0125        0.3149
       5.0125        0.3149
       5.0125        0.3149
       5.0125        0.3149
       5.0125        0.3149
       5.0125        0.3149
       5.0125        0.3149
       5.0125        0.3149
       5.0125        0.3149
       5.0125        0.3149
       5.0125        0.3149
       5.0125        0.3149
       5.0125        0.3149
       5.0125        0.3149
       5.0125        0.3149
       5.0125        0.3149
       5.0125        0.3149
       5.0125        0.3149
       5.0125        0.3149
       5.0125        0.3149
       5.0125        0.3149
       5.0125        0.3149
       5.0125        0.3149
       5.0125        0.3149
       5.0125        0.3149
       5.0125        0.3149
       5.0125        0.3149
       5.0125        0.3149
       5.0125        0.3149
       5.0125        0.3149
       5.0125        0.3149
       5.0125        0.3149
       5.0125        0.3149
       5.0125        0.3149
       5.0125        0.3149
       5.0125        0.3149
       5.0125        0.3149
       5.0125        0.3149
       5.0125        0.3149
       5.0125        0.3149
       5.0125        0.3149
# Peak positions (2 theta), intensity, half-width, weight Gauss/Lorentz (for pseudo-voigt),
# peak number        0
      16.3831        2.7242        0.0571        0.5317
      16.3851        2.6874        0.0571        0.5317
      16.3865        2.5521        0.0571        0.5317
      16.3874        2.9661        0.0571        0.5317
      16.3877        3.9966        0.0571        0.5317
      16.3873        5.1089        0.0571        0.5317
      16.3862        6.0251        0.0571        0.5317
      16.3845        7.3004        0.0571        0.5317
      16.3822        9.7176        0.0571        0.5317
      16.3794       13.0681        0.0571        0.5317
      16.3760       15.7989        0.0571        0.5317
      16.3722       16.1821        0.0571        0.5317
      16.3682       13.9198        0.0571        0.5317
      16.3638       10.4619        0.0571        0.5317
      16.3594        7.6239        0.0571        0.5317
      16.3550        5.9745        0.0571        0.5317
      16.3507        4.7708        0.0571        0.5317
      16.3466        3.4855        0.0571        0.5317
      16.3429        3.0827        0.0571        0.5317
      16.3395        5.3385        0.0571        0.5317
      16.3367       10.6678        0.0571        0.5317
      16.3344       16.7942        0.0571        0.5317
      16.3327       20.0014        0.0571        0.5317
      16.3316       18.1024        0.0571        0.5317
      16.3312       12.3468        0.0571        0.5317
      16.3315        6.3780        0.0571        0.5317
      16.3324        3.2165        0.0571        0.5317
      16.3339        3.1453        0.0571        0.5317
      16.3360        4.3507        0.0571        0.5317
      16.3386        5.3302        0.0571        0.5317
      16.3416        6.4124        0.0571        0.5317
      16.3449        8.9022        0.0571        0.5317
      16.3485       13.0156        0.0571        0.5317
      16.3522       17.0187        0.0571        0.5317
      16.3560       18.5837        0.0571        0.5317
      16.3598       16.9273        0.0571        0.5317
      16.3636       13.4819        0.0571        0.5317
      16.3671       10.4559        0.0571        0.5317
      16.3705        8.8540        0.0571        0.5317
      16.3735        7.9559        0.0571        0.5317
      16.3762        6.5676        0.0571        0.5317
      16.3786        4.4996        0.0571        0.5317
      16.3806        2.6839        0.0571        0.5317
      16.3822        2.0055        0.0571        0.5317
      16.3834        2.3161        0.0571        0.5317
      16.3841        2.7242        0.0571        0.5317
      16.3845        2.6874        0.0571        0.5317
      16.3846        2.5521        0.0571        0.5317
      16.3843        2.9661        0.0571        0.5317
      16.3837        3.9966        0.0571        0.5317
      16.3828        5.1089        0.0571        0.5317
      16.3817        6.0251        0.0571        0.5317
      16.3803        7.3004        0.0571        0.5317
      16.3788        9.7176        0.0571        0.5317
      16.3771       13.0681        0.0571        0.5317
      16.3752       15.7989        0.0571        0.5317
      16.3732       16.1821        0.0571        0.5317
      16.3711       13.9198        0.0571        0.5317
      16.3689       10.4619        0.0571        0.5317
      16.3667        7.6239        0.0571        0.5317
      16.3644        5.9745        0.0571        0.5317
      16.3621        4.7708        0.0571        0.5317
      16.3598        3.4855        0.0571        0.5317
      16.3575        3.0827        0.0571        0.5317
      16.3552        5.3385        0.0571        0.5317
      16.3530       10.6678        0.0571        0.5317
      16.3509       16.7942        0.0571        0.5317
      16.3489       20.0014        0.0571        0.5317
      16.3471       18.1024        0.0571        0.5317
      16.3456       12.3468        0.0571        0.5317
      16.3442        6.3780        0.0571        0.5317
      16.3432        3.2165        0.0571        0.5317
      16.3425        3.1453        0.0571        0.5317
      16.3422        4.3507        0.0571        0.5317
      16.3422        5.3302        0.0571        0.5317
      16.3427        6.4124        0.0571        0.5317
      16.3436        8.9022        0.0571        0.5317
      16.3449       13.0156        0.0571        0.5317
      16.3466       17.0187        0.0571        0.5317
      16.3488       18.5837        0.0571        0.5317
      16.3513       16.9273        0.0571        0.5317
      16.3541       13.4819        0.0571        0.5317
      16.3573       10.4559        0.0571        0.5317
      16.3606        8.8540        0.0571        0.5317
      16.3641        7.9559        0.0571        0.5317
      16.3677        6.5676        0.0571        0.5317
      16.3712        4.4996        0.0571        0.5317
      16.3745        2.6839        0.0571        0.5317
      16.3777        2.0055        0.0571        0.5317
      16.3806        2.3161        0.0571        0.5317
# Sub-patterns        2
# Number of peaks
       1
# Peak profile
       1
# Width factor
     15.00000
# Range in azimuth: nvalues, and values
        90
       0.0
       4.0
       8.0
      12.0
      16.0
      20.0
      24.0
      28.0
      32.0
      36.0
      40.0
      44.0
      48.0
      52.0
      56.0
      60.0
      64.0
      68.0
      72.0
      76.0
      80.0
      84.0
      88.0
      92.0
      96.0
     100.0
     104.0
     108.0
     112.0
     116.0
     120.0
     124.0
     128.0
     132.0
     136.0
     140.0
     144.0
     148.0
     152.0
     156.0
     160.0
     164.0
     168.0
     172.0
     176.0
     180.0
     184.0
     188.0
     192.0
     196.0
     200.0
     204.0
     208.0
     212.0
     216.0
     220.0
     224.0
     228.0
     232.0
     236.0
     240.0
     244.0
     248.0
     252.0
     256.0
     260.0
     264.0
     268.0
     272.0
     276.0
     280.0
     284.0
     288.0
     292.0
     296.0
     300.0
     304.0
     308.0
     312.0
     316.0
     320.0
     324.0
     328.0
     332.0
     336.0
     340.0
     344.0
     348.0
     352.0
     356.0
# background positions, in 2 theta (left/right)
      19.8000       20.2700
      19.8000       20.2700
      19.8000       20.2700
      19.8000       20.2700
      19.8000       20.2700
      19.8000       20.2700
      19.8000       20.2700
      19.8000       20.2700
      19.8000       20.2700
      19.8000       20.2700
      19.8000       20.2700
      19.8000       20.2700
      19.8000       20.2700
      19.8000       20.2700
      19.8000       20.2700
      19.8000       20.2700
      19.8000       20.2700
      19.8000       20.2700
      19.8000       20.2700
      19.8000       20.2700
      19.8000       20.2700
      19.8000       20.2700
      19.8000       20.2700
      19.8000       20.2700
      19.8000       20.2700
      19.8000       20.2700
      19.8000       20.2700
      19.8000       20.2700
      19.8000       20.2700
      19.8000       20.2700
      19.8000       20.2700
      19.8000       20.2700
      19.8000       20.2700
      19.8000       20.2700
      19.8000       20.2700
      19.8000       20.2700
      19.8000       20.2700
      19.8000       20.2700
      19.8000       20.2700
      19.8000       20.2700
      19.8000       20.2700
      19.8000       20.2700
      19.8000       20.2700
      19.8000       20.2700
      19.8000       20.2700
      19.8000       20.2700
      19.8000       20.2700
      19.8000       20.2700
      19.8000       20.2700
      19.8000       20.2700
      19.8000       20.2700
      19.8000       20.2700
      19.8000       20.2700
      19.8000       20.2700
      19.8000       20.2700
      19.8000       20.2700
      19.8000       20.2700
      19.8000       20.2700
      19.8000       20.2700
      19.8000       20.2700
      19.8000       20.2700
      19.8000       20.2700
      19.8000       20.2700
      19.8000       20.2700
      19.8000       20.2700
      19.8000       20.2700
      19.8000       20.2700
      19.8000       20.2700
      19.8000       20.2700
      19.8000       20.2700
      19.8000       20.2700
      19.8000       20.2700
      19.8000       20.2700
      19.8000       20.2700
      19.8000       20.2700
      19.8000       20.2700
      19.8000       20.2700
      19.8000       20.2700
      19.8000       20.2700
      19.8000       20.2700
      19.8000       20.2700
      19.8000       20.2700
      19.8000       20.2700
      19.8000       20.2700
      19.8000       20.2700
      19.8000       20.2700
      19.8000       20.2700
      19.8000       20.2700
      19.8000       20.2700
      19.8000       20.2700
# background coefficients
       5.1270        0.7266
       5.1270        0.7266
       5.1270        0.7266
       5.1270        0.7266
       5.1270        0.7266
       5.1270        0.7266
       5.1270        0.7266
       5.1270        0.7266
       5.1270        0.7266
       5.1270        0.7266
       5.1270        0.7266
       5.1270        0.7266
       5.1270        0.7266
       5.1270        0.7266
       5.1270        0.7266
       5.1270        0.7266
       5.1270        0.7266
       5.1270        0.7266
       5.1270        0.7266
       5.1270        0.7266
       5.1270        0.7266
       5.1270        0.7266
       5.1270        0.7266
       5.1270        0.7266
       5.1270        0.7266
       5.1270        0.7266
       5.1270        0.7266
       5.1270        0.7266
       5.1270        0.7266
       5.1270        0.7266
       5.1270        0.7266
       5.1270        0.7266
       5.1270        0.7266
       5.1270        0.7266
       5.1270        0.7266
       5.1270        0.7266
       5.1270        0.7266
       5.1270        0.7266
       5.1270        0.7266
       5.1270        0.7266
       5.1270        0.7266
       5.1270        0.7266
       5.1270        0.7266
       5.1270        0.7266
       5.1270        0.7266
       5.1270        0.7266
       5.1270        0.7266
       5.1270        0.7266
       5.1270        0.7266
       5.1270        0.7266
       5.1270        0.7266
       5.1270        0.7266
       5.1270        0.7266
       5.1270        0.7266
       5.1270        0.7266
       5.1270        0.7266
       5.1270        0.7266
       5.1270        0.7266
       5.1270        0.7266
       5.1270        0.7266
       5.1270        0.7266
       5.1270        0.7266
       5.1270        0.7266
       5.1270        0.7266
       5.1270        0.7266
       5.1270        0.7266
       5.1270        0.7266
       5.1270        0.7266
       5.1270        0.7266
       5.1270        0.7266
       5.1270        0.7266
       5.1270        0.7266
       5.1270        0.7266
       5.1270        0.7266
       5.1270        0.7266
       5.1270        0.7266
       5.1270        0.7266
       5.1270        0.7266
       5.1270        0.7266
       5.1270        0.7266
       5.1270        0.7266
       5.1270        0.7266
       5.1270        0.7266
       5.1270        0.7266
       5.1270        0.7266
       5.1270        0.7266
       5.1270        0.7266
       5.1270        0.7266
       5.1270        0.7266
       5.1270        0.7266
# Peak positions (2 theta), intensity, half-width, weight Gauss/Lorentz (for pseudo-voigt),
# peak number        0
      20.0951        4.1877        0.0536        0.7500
      20.0968        3.1128        0.0536        0.7824
      20.0979        1.7877        0.0536        0.8092
      20.0983        4.3532        0.0536        0.8301
      20.0981       12.4901        0.0536        0.8445
      20.0971       23.3079        0.0536        0.8522
      20.0955       31.2121        0.0536        0.8531
      20.0933       32.1504        0.0536        0.8471
      20.0904       26.6208        0.0536        0.8343
      20.0871       19.0254        0.0536        0.8150
      20.0833       14.1476        0.0536        0.7896
      20.0792       13.8123        0.0536        0.7586
      20.0748       16.2870        0.0536        0.7225
      20.0702       18.4400        0.0536        0.6821
      20.0657       18.4744        0.0536        0.6381
      20.0612       16.9974        0.0536        0.5915
      20.0568       15.9502        0.0536        0.5431
      20.0528       16.7290        0.0536        0.4938
      20.0491       19.1713        0.0536        0.4447
      20.0459       21.9974        0.0536        0.3966
      20.0432       23.9885        0.0536        0.3506
      20.0411       24.7739        0.0536        0.3074
      20.0396       24.7116        0.0536        0.2680
      20.0388       24.2266        0.0536        0.2332
      20.0386       23.3480        0.0536        0.2035
      20.0391       21.8610        0.0536        0.1796
      20.0403       19.8507        0.0536        0.1619
      20.0420       18.0195        0.0536        0.1508
      20.0443       17.3289        0.0536        0.1465
      20.0472       18.1300        0.0536        0.1491
      20.0504       19.5453        0.0536        0.1585
      20.0541       19.8660        0.0536        0.1746
      20.0580       17.9683        0.0536        0.1969
      20.0621       14.7055        0.0536        0.2252
      20.0663       12.8741        0.0536        0.2589
      20.0705       15.2786        0.0536        0.2972
      20.0748       22.1213        0.0536        0.3395
      20.0788       29.9442        0.0536        0.3849
      20.0827       33.4759        0.0536        0.4325
      20.0863       29.3741        0.0536        0.4815
      20.0896       18.9718        0.0536        0.5308
      20.0926        7.5868        0.0536        0.5795
      20.0951        0.6882        0.0536        0.6267
      20.0973       -0.0363        0.0536        0.6714
      20.0989        2.5723        0.0536        0.7128
      20.1001        4.1877        0.0536        0.7500
      20.1009        3.1128        0.0536        0.7824
      20.1012        1.7877        0.0536        0.8092
      20.1010        4.3532        0.0536        0.8301
      20.1004       12.4901        0.0536        0.8445
      20.0993       23.3079        0.0536        0.8522
      20.0979       31.2121        0.0536        0.8531
      20.0961       32.1504        0.0536        0.8471
      20.0939       26.6208        0.0536        0.8343
      20.0915       19.0254        0.0536        0.8150
      20.0887       14.1476        0.0536        0.7896
      20.0858       13.8123        0.0536        0.7586
      20.0826       16.2870        0.0536        0.7225
      20.0793       18.4400        0.0536        0.6821
      20.0759       18.4744        0.0536        0.6381
      20.0724       16.9974        0.0536        0.5915
      20.0689       15.9502        0.0536        0.5431
      20.0654       16.7290        0.0536        0.4938
      20.0620       19.1713        0.0536        0.4447
      20.0588       21.9974        0.0536        0.3966
      20.0558       23.9885        0.0536        0.3506
      20.0530       24.7739        0.0536        0.3074
      20.0505       24.7116        0.0536        0.2680
      20.0484       24.2266        0.0536        0.2332
      20.0467       23.3480        0.0536        0.2035
      20.0454       21.8610        0.0536        0.1796
      20.0445       19.8507        0.0536        0.1619
      20.0442       18.0195        0.0536        0.1508
      20.0444       17.3289        0.0536        0.1465
      20.0451       18.1300        0.0536        0.1491
      20.0463       19.5453        0.0536        0.1585
      20.0481       19.8660        0.0536        0.1746
      20.0503       17.9683        0.0536        0.1969
      20.0531       14.7055        0.0536        0.2252
      20.0562       12.8741        0.0536        0.2589
      20.0596       15.2786        0.0536        0.2972
      20.0634       22.1213        0.0536        0.3395
      20.0673       29.9442        0.0536        0.3849
      20.0714       33.4759        0.0536        0.4325
      20.0754       29.3741        0.0536        0.4815
      20.0794       18.9718        0.0536        0.5308
      20.0833        7.5868        0.0536        0.5795
      20.0869        0.6882        0.0536        0.6267
      20.0901       -0.0363        0.0536        0.6714
      20.0929        2.5723        0.0536        0.7128
# Sub-patterns        3
# Number of peaks
       1
# Peak profile
       1
# Width factor
     15.00000
# Range in azimuth: nvalues, and values
        90
       0.0
       4.0
       8.0
      12.0
      16.0
      20.0
      24.0
      28.0
      32.0
      36.0
      40.0
      44.0
      48.0
      52.0
      56.0
      60.0
      64.0
      68.0
      72.0
      76.0
      80.0
      84.0
      88.0
      92.0
      96.0
     100.0
     104.0
     108.0
     112.0
     116.0
     120.0
     124.0
     128.0
     132.0
     136.0
     140.0
     144.0
     148.0
     152.0
     156.0
     160.0
     164.0
     168.0
     172.0
     176.0
     180.0
     184.0
     188.0
     192.0
     196.0
     200.0
     204.0
     208.0
     212.0
     216.0
     220.0
     224.0
     228.0
     232.0
     236.0
     240.0
     244.0
     248.0
     252.0
     256.0
     260.0
     264.0
     268.0
     272.0
     276.0
     280.0
     284.0
     288.0
     292.0
     296.0
     300.0
     304.0
     308.0
     312.0
     316.0
     320.0
     324.0
     328.0
     332.0
     336.0
     340.0
     344.0
     348.0
     352.0
     356.0
# background positions, in 2 theta (left/right)
      23.1001       23.5000
      23.1001       23.5000
      23.1001       23.5000
      23.1001       23.5000
      23.1001       23.5000
      23.1001       23.5000
      23.1001       23.5000
      23.1001       23.5000
      23.1001       23.5000
      23.1001       23.5000
      23.1001       23.5000
      23.1001       23.5000
      23.1001       23.5000
      23.1001       23.5000
      23.1001       23.5000
      23.1001       23.5000
      23.1001       23.5000
      23.1001       23.5000
      23.1001       23.5000
      23.1001       23.5000
      23.1001       23.5000
      23.1001       23.5000
      23.1001       23.5000
      23.1001       23.5000
      23.1001       23.5000
      23.1001       23.5000
      23.1001       23.5000
      23.1001       23.5000
      23.1001       23.5000
      23.1001       23.5000
      23.1001       23.5000
      23.1001       23.5000
      23.1001       23.5000
      23.1001       23.5000
      23.1001       23.5000
      23.1001       23.5000
      23.1001       23.5000
      23.1001       23.5000
      23.1001       23.5000
      23.1001       23.5000
      23.1001       23.5000
      23.1001       23.5000
      23.1001       23.5000
      23.1001       23.5000
      23.1001       23.5000
      23.1001       23.5000
      23.1001       23.5000
      23.1001       23.5000
      23.1001       23.5000
      23.1001       23.5000
      23.1001       23.5000
      23.1001       23.5000
      23.1001       23.5000
      23.1001       23.5000
      23.1001       23.5000
      23.1001       23.5000
      23.1001       23.5000
      23.1001       23.5000
      23.1001       23.5000
      23.1001       23.5000
      23.1001       23.5000
      23.1001       23.5000
      23.1001       23.5000
      23.1001       23.5000
      23.1001       23.5000
      23.1001       23.5000
      23.1001       23.5000
      23.1001       23.5000
      23.1001       23.5000
      23.1001       23.5000
      23.1001       23.5000
      23.1001       23.5000
      23.1001       23.5000
      23.1001       23.5000
      23.1001       23.5000
      23.1001       23.5000
      23.1001       23.5000
      23.1001       23.5000
      23.1001       23.5000
      23.1001       23.5000
      23.1001       23.5000
      23.1001       23.5000
      23.1001       23.5000
      23.1001       23.5000
      23.1001       23.5000
      23.1001       23.5000
      23.1001       23.5000
      23.1001       23.5000
      23.1001       23.5000
      23.1001       23.5000
# background coefficients
       5.9417       -3.5503
       5.9234       -3.4479
       5.9111       -3.3339
       5.9050       -3.2107
       5.9053       -3.0807
       5.9118       -2.9468
       5.9244       -2.8118
       5.9429       -2.6786
       5.9668       -2.5501
       5.9958       -2.4292
       6.0291       -2.3186
       6.0663       -2.2208
       6.1065       -2.1384
       6.1491       -2.0733
       6.1931       -2.0273
       6.2379       -2.0018
       6.2825       -1.9980
       6.3261       -2.0164
       6.3679       -2.0573
       6.4071       -2.1204
       6.4431       -2.2053
       6.4752       -2.3107
       6.5029       -2.4354
       6.5256       -2.5775
       6.5431       -2.7348
       6.5550       -2.9050
       6.5612       -3.0853
       6.5617       -3.2727
       6.5565       -3.4643
       6.5458       -3.6568
       6.5299       -3.8471
       6.5093       -4.0320
       6.4844       -4.2083
       6.4558       -4.3732
       6.4241       -4.5238
       6.3901       -4.6576
       6.3544       -4.7724
       6.3179       -4.8664
       6.2814       -4.9379
       6.2457       -4.9858
       6.2115       -5.0095
       6.1795       -5.0086
       6.1506       -4.9833
       6.1252       -4.9342
       6.1041       -4.8624
       6.0875       -4.7691
       6.0760       -4.6563
       6.0697       -4.5260
       6.0689       -4.3806
       6.0736       -4.2228
       6.0837       -4.0555
       6.0992       -3.8817
       6.1196       -3.7044
       6.1446       -3.5269
       6.1737       -3.3522
       6.2065       -3.1833
       6.2421       -3.0231
       6.2800       -2.8743
       6.3193       -2.7392
       6.3593       -2.6199
       6.3992       -2.5184
       6.4382       -2.4359
       6.4754       -2.3736
       6.5100       -2.3319
       6.5415       -2.3113
       6.5690       -2.3113
       6.5921       -2.3315
       6.6101       -2.3708
       6.6226       -2.4278
       6.6294       -2.5008
       6.6303       -2.5878
       6.6250       -2.6864
       6.6137       -2.7941
       6.5965       -2.9083
       6.5737       -3.0262
       6.5455       -3.1449
       6.5125       -3.2615
       6.4751       -3.3735
       6.4341       -3.4780
       6.3902       -3.5726
       6.3440       -3.6550
       6.2965       -3.7234
       6.2484       -3.7759
       6.2006       -3.8114
       6.1540       -3.8287
       6.1094       -3.8275
       6.0675       -3.8074
       6.0292       -3.7688
       5.9951       -3.7123
       5.9657       -3.6390
# Peak positions (2 theta), intensity, half-width, weight Gauss/Lorentz (for pseudo-voigt),
# peak number        0
      23.2457        8.7503        0.0591        0.4831
      23.2478        8.0966        0.0591        0.4831
      23.2492        6.4374        0.0591        0.4831
      23.2499        4.2579        0.0591        0.4831
      23.2498        2.3265        0.0591        0.4831
      23.2489        1.2836        0.0591        0.4831
      23.2474        1.1708        0.0591        0.4831
      23.2451        1.3877        0.0591        0.4831
      23.2422        1.2454        0.0591        0.4831
      23.2387        0.6788        0.0591        0.4831
      23.2346        0.4240        0.0591        0.4831
      23.2302        1.4032        0.0591        0.4831
      23.2254        3.8131        0.0591        0.4831
      23.2204        6.7467        0.0591        0.4831
      23.2153        8.7353        0.0591        0.4831
      23.2101        8.7791        0.0591        0.4831
      23.2050        7.0218        0.0591        0.4831
      23.2002        4.5679        0.0591        0.4831
      23.1956        2.6838        0.0591        0.4831
      23.1915        2.0506        0.0591        0.4831
      23.1878        2.5467        0.0591        0.4831
      23.1847        3.5282        0.0591        0.4831
      23.1823        4.2705        0.0591        0.4831
      23.1806        4.3147        0.0591        0.4831
      23.1796        3.6677        0.0591        0.4831
      23.1794        2.8438        0.0591        0.4831
      23.1800        2.6513        0.0591        0.4831
      23.1813        3.6870        0.0591        0.4831
      23.1835        5.7933        0.0591        0.4831
      23.1864        7.9451        0.0591        0.4831
      23.1900        8.8186        0.0591        0.4831
      23.1942        7.7162        0.0591        0.4831
      23.1991        5.1144        0.0591        0.4831
      23.2043        2.3335        0.0591        0.4831
      23.2100        0.5702        0.0591        0.4831
      23.2160        0.1007        0.0591        0.4831
      23.2222        0.3033        0.0591        0.4831
      23.2284        0.3970        0.0591        0.4831
      23.2346        0.1774        0.0591        0.4831
      23.2406        0.1125        0.0591        0.4831
      23.2463        0.8174        0.0591        0.4831
      23.2517        2.4728        0.0591        0.4831
      23.2566        4.6891        0.0591        0.4831
      23.2609        6.8114        0.0591        0.4831
      23.2645        8.2777        0.0591        0.4831
      23.2675        8.7503        0.0591        0.4831
      23.2696        8.0966        0.0591        0.4831
      23.2709        6.4374        0.0591        0.4831
      23.2714        4.2579        0.0591        0.4831
      23.2710        2.3265        0.0591        0.4831
      23.2697        1.2836        0.0591        0.4831
      23.2676        1.1708        0.0591        0.4831
      23.2647        1.3877        0.0591        0.4831
      23.2611        1.2454        0.0591        0.4831
      23.2568        0.6788        0.0591        0.4831
      23.2519        0.4240        0.0591        0.4831
      23.2464        1.4032        0.0591        0.4831
      23.2406        3.8131        0.0591        0.4831
      23.2345        6.7467        0.0591        0.4831
      23.2281        8.7353        0.0591        0.4831
      23.2217        8.7791        0.0591        0.4831
      23.2153        7.0218        0.0591        0.4831
      23.2091        4.5679        0.0591        0.4831
      23.2031        2.6838        0.0591        0.4831
      23.1976        2.0506        0.0591        0.4831
      23.1924        2.5467        0.0591        0.4831
      23.1879        3.5282        0.0591        0.4831
      23.1839        4.2705        0.0591        0.4831
      23.1807        4.3147        0.0591        0.4831
      23.1782        3.6677        0.0591        0.4831
      23.1765        2.8438        0.0591        0.4831
      23.1756        2.6513        0.0591        0.4831
      23.1755        3.6870        0.0591        0.4831
      23.1762        5.7933        0.0591        0.4831
      23.1777        7.9451        0.0591        0.4831
      23.1799        8.8186        0.0591        0.4831
      23.1828        7.7162        0.0591        0.4831
      23.1864        5.1144        0.0591        0.4831
      23.1905        2.3335        0.0591        0.4831
      23.1950        0.5702        0.0591        0.4831
      23.2000        0.1007        0.0591        0.4831
      23.2051        0.3033        0.0591        0.4831
      23.2104        0.3970        0.0591        0.4831
      23.2158        0.1774        0.0591        0.4831
      23.2211        0.1125        0.0591        0.4831
      23.2262        0.8174        0.0591        0.4831
      23.2310        2.4728        0.0591        0.4831
      23.2355        4.6891        0.0591        0.4831
      23.2394        6.8114        0.0591        0.4831
      23.2429        8.2777        0.0591        0.4831
# Sub-patterns        4
# Number of peaks
       1
# Peak profile
       1
# Width factor
     15.00000
# Range in azimuth: nvalues, and values
        90
       0.0
       4.0
       8.0
      12.0
      16.0
      20.0
      24.0
      28.0
      32.0
      36.0
      40.0
      44.0
      48.0
      52.0
      56.0
      60.0
      64.0
      68.0
      72.0
      76.0
      80.0
      84.0
      88.0
      92.0
      96.0
     100.0
     104.0
     108.0
     112.0
     116.0
     120.0
     124.0
     128.0
     132.0
     136.0
     140.0
     144.0
     148.0
     152.0
     156.0
     160.0
     164.0
     168.0
     172.0
     176.0
     180.0
     184.0
     188.0
     192.0
     196.0
     200.0
     204.0
     208.0
     212.0
     216.0
     220.0
     224.0
     228.0
     232.0
     236.0
     240.0
     244.0
     248.0
     252.0
     256.0
     260.0
     264.0
     268.0
     272.0
     276.0
     280.0
     284.0
     288.0
     292.0
     296.0
     300.0
     304.0
     308.0
     312.0
     316.0
     320.0
     324.0
     328.0
     332.0
     336.0
     340.0
     344.0
     348.0
     352.0
     356.0
# background positions, in 2 theta (left/right)
      25.7000       26.3999
      25.7000       26.3999
      25.7000       26.3999
      25.7000       26.3999
      25.7000       26.3999
      25.7000       26.3999
      25.7000       26.3999
      25.7000       26.3999
      25.7000       26.3999
      25.7000       26.3999
      25.7000       26.3999
      25.7000       26.3999
      25.7000       26.3999
      25.7000       26.3999
      25.7000       26.3999
      25.7000       26.3999
      25.7000       26.3999
      25.7000       26.3999
      25.7000       26.3999
      25.7000       26.3999
      25.7000       26.3999
      25.7000       26.3999
      25.7000       26.3999
      25.7000       26.3999
      25.7000       26.3999
      25.7000       26.3999
      25.7000       26.3999
      25.7000       26.3999
      25.7000       26.3999
      25.7000       26.3999
      25.7000       26.3999
      25.7000       26.3999
      25.7000       26.3999
      25.7000       26.3999
      25.7000       26.3999
      25.7000       26.3999
      25.7000       26.3999
      25.7000       26.3999
      25.7000       26.3999
      25.7000       26.3999
      25.7000       26.3999
      25.7000       26.3999
      25.7000       26.3999
      25.7000       26.3999
      25.7000       26.3999
      25.7000       26.3999
      25.7000       26.3999
      25.7000       26.3999
      25.7000       26.3999
      25.7000       26.3999
      25.7000       26.3999
      25.7000       26.3999
      25.7000       26.3999
      25.7000       26.3999
      25.7000       26.3999
      25.7000       26.3999
      25.7000       26.3999
      25.7000       26.3999
      25.7000       26.3999
      25.7000       26.3999
      25.7000       26.3999
      25.7000       26.3999
      25.7000       26.3999
      25.7000       26.3999
      25.7000       26.3999
      25.7000       26.3999
      25.7000       26.3999
      25.7000       26.3999
      25.7000       26.3999
      25.7000       26.3999
      25.7000       26.3999
      25.7000       26.3999
      25.7000       26.3999
      25.7000       26.3999
      25.7000       26.3999
      25.7000       26.3999
      25.7000       26.3999
      25.7000       26.3999
      25.7000       26.3999
      25.7000       26.3999
      25.7000       26.3999
      25.7000       26.3999
      25.7000       26.3999
      25.7000       26.3999
      25.7000       26.3999
      25.7000       26.3999
      25.7000       26.3999
      25.7000       26.3999
      25.7000       26.3999
      25.7000       26.3999
# background coefficients
       4.2813       -0.4049
       4.3362       -0.4710
       4.4022       -0.5020
       4.4773       -0.4980
       4.5595       -0.4596
       4.6468       -0.3881
       4.7371       -0.2854
       4.8282       -0.1540
       4.9182        0.0031
       5.0052        0.1825
       5.0872        0.3805
       5.1627        0.5928
       5.2303        0.8151
       5.2888        1.0430
       5.3371        1.2718
       5.3746        1.4971
       5.4009        1.7146
       5.4160        1.9199
       5.4198        2.1094
       5.4129        2.2793
       5.3961        2.4267
       5.3703        2.5489
       5.3366        2.6439
       5.2966        2.7102
       5.2517        2.7470
       5.2038        2.7540
       5.1546        2.7316
       5.1061        2.6808
       5.0601        2.6031
       5.0185        2.5008
       4.9831        2.3764
       4.9557        2.2330
       4.9378        2.0743
       4.9309        1.9039
       4.9360        1.7260
       4.9543        1.5449
       4.9863        1.3648
       5.0324        1.1900
       5.0928        1.0247
       5.1673        0.8730
       5.2554        0.7385
       5.3563        0.6247
       5.4690        0.5347
       5.5920        0.4707
       5.7239        0.4350
       5.8627        0.4288
       6.0066        0.4530
       6.1533        0.5078
       6.3006        0.5927
       6.4461        0.7066
       6.5875        0.8480
       6.7225        1.0145
       6.8486        1.2034
       6.9638        1.4115
       7.0659        1.6350
       7.1531        1.8699
       7.2237        2.1119
       7.2764        2.3565
       7.3099        2.5992
       7.3234        2.8353
       7.3165        3.0602
       7.2889        3.2696
       7.2408        3.4594
       7.1727        3.6257
       7.0853        3.7652
       6.9798        3.8748
       6.8575        3.9523
       6.7203        3.9957
       6.5698        4.0039
       6.4084        3.9761
       6.2383        3.9127
       6.0618        3.8141
       5.8816        3.6819
       5.7001        3.5180
       5.5199        3.3249
       5.3435        3.1057
       5.1733        2.8641
       5.0116        2.6039
       4.8605        2.3296
       4.7218        2.0457
       4.5972        1.7570
       4.4881        1.4682
       4.3956        1.1843
       4.3205        0.9099
       4.2632        0.6497
       4.2239        0.4077
       4.2025        0.1881
       4.1984       -0.0057
       4.2109       -0.1707
       4.2390       -0.3044
# Peak positions (2 theta), intensity, half-width, weight Gauss/Lorentz (for pseudo-voigt),
# peak number        0
      26.0650        6.6429        0.0964        0.5000
      26.0673        6.6683        0.0964        0.5000
      26.0685        6.6573        0.0964        0.5000
      26.0686        6.6103        0.0964        0.5000
      26.0676        6.5280        0.0964        0.5000
      26.0655        6.4121        0.0964        0.5000
      26.0625        6.2649        0.0964        0.5000
      26.0585        6.0891        0.0964        0.5000
      26.0537        5.8883        0.0964        0.5000
      26.0481        5.6664        0.0964        0.5000
      26.0420        5.4276        0.0964        0.5000
      26.0353        5.1766        0.0964        0.5000
      26.0283        4.9183        0.0964        0.5000
      26.0210        4.6577        0.0964        0.5000
      26.0137        4.4000        0.0964        0.5000
      26.0065        4.1500        0.0964        0.5000
      25.9996        3.9127        0.0964        0.5000
      25.9931        3.6927        0.0964        0.5000
      25.9870        3.4943        0.0964        0.5000
      25.9817        3.3213        0.0964        0.5000
      25.9771        3.1771        0.0964        0.5000
      25.9734        3.0645        0.0964        0.5000
      25.9706        2.9858        0.0964        0.5000
      25.9688        2.9423        0.0964        0.5000
      25.9681        2.9351        0.0964        0.5000
      25.9684        2.9642        0.0964        0.5000
      25.9699        3.0290        0.0964        0.5000
      25.9723        3.1283        0.0964        0.5000
      25.9758        3.2602        0.0964        0.5000
      25.9802        3.4221        0.0964        0.5000
      25.9855        3.6108        0.0964        0.5000
      25.9916        3.8227        0.0964        0.5000
      25.9983        4.0536        0.0964        0.5000
      26.0055        4.2991        0.0964        0.5000
      26.0131        4.5544        0.0964        0.5000
      26.0210        4.8144        0.0964        0.5000
      26.0290        5.0742        0.0964        0.5000
      26.0368        5.3287        0.0964        0.5000
      26.0445        5.5730        0.0964        0.5000
      26.0518        5.8022        0.0964        0.5000
      26.0586        6.0119        0.0964        0.5000
      26.0647        6.1980        0.0964        0.5000
      26.0700        6.3570        0.0964        0.5000
      26.0745        6.4857        0.0964        0.5000
      26.0780        6.5816        0.0964        0.5000
      26.0804        6.6429        0.0964        0.5000
      26.0817        6.6683        0.0964        0.5000
      26.0818        6.6573        0.0964        0.5000
      26.0809        6.6103        0.0964        0.5000
      26.0787        6.5280        0.0964        0.5000
      26.0755        6.4121        0.0964        0.5000
      26.0712        6.2649        0.0964        0.5000
      26.0659        6.0891        0.0964        0.5000
      26.0598        5.8883        0.0964        0.5000
      26.0529        5.6664        0.0964        0.5000
      26.0453        5.4276        0.0964        0.5000
      26.0372        5.1766        0.0964        0.5000
      26.0288        4.9183        0.0964        0.5000
      26.0202        4.6577        0.0964        0.5000
      26.0115        4.4000        0.0964        0.5000
      26.0029        4.1500        0.0964        0.5000
      25.9946        3.9127        0.0964        0.5000
      25.9867        3.6927        0.0964        0.5000
      25.9794        3.4943        0.0964        0.5000
      25.9728        3.3213        0.0964        0.5000
      25.9669        3.1771        0.0964        0.5000
      25.9620        3.0645        0.0964        0.5000
      25.9581        2.9858        0.0964        0.5000
      25.9553        2.9423        0.0964        0.5000
      25.9536        2.9351        0.0964        0.5000
      25.9530        2.9642        0.0964        0.5000
      25.9536        3.0290        0.0964        0.5000
      25.9553        3.1283        0.0964        0.5000
      25.9581        3.2602        0.0964        0.5000
      25.9619        3.4221        0.0964        0.5000
      25.9666        3.6108        0.0964        0.5000
      25.9723        3.8227        0.0964        0.5000
      25.9786        4.0536        0.0964        0.5000
      25.9856        4.2991        0.0964        0.5000
      25.9931        4.5544        0.0964        0.5000
      26.0009        4.8144        0.0964        0.5000
      26.0089        5.0742        0.0964        0.5000
      26.0170        5.3287        0.0964        0.5000
      26.0249        5.5730        0.0964        0.5000
      26.0325        5.8022        0.0964        0.5000
      26.0397        6.0119        0.0964        0.5000
      26.0463        6.1980        0.0964        0.5000
      26.0523        6.3570        0.0964        0.5000
      26.0575        6.4857        0.0964        0.5000
      26.0617        6.5816        0.0964        0.5000
