# File version
1
# Peak profile (0: gauss, 1: pseudo-voigt, 2: lorentz)
       0
# Number of sub-patterns
       5
# Sub-patterns        0
# Number of peaks
       2
# Peak profile
       1
# Width factor
     15.00000
# Range in azimuth: nvalues, and values
        90
       0.0
       4.0
       8.0
      12.0
      16.0
      20.0
      24.0
      28.0
      32.0
      36.0
      40.0
      44.0
      48.0
      52.0
      56.0
      60.0
      64.0
      68.0
      72.0
      76.0
      80.0
      84.0
      88.0
      92.0
      96.0
     100.0
     104.0
     108.0
     112.0
     116.0
     120.0
     124.0
     128.0
     132.0
     136.0
     140.0
     144.0
     148.0
     152.0
     156.0
     160.0
     164.0
     168.0
     172.0
     176.0
     180.0
     184.0
     188.0
     192.0
     196.0
     200.0
     204.0
     208.0
     212.0
     216.0
     220.0
     224.0
     228.0
     232.0
     236.0
     240.0
     244.0
     248.0
     252.0
     256.0
     260.0
     264.0
     268.0
     272.0
     276.0
     280.0
     284.0
     288.0
     292.0
     296.0
     300.0
     304.0
     308.0
     312.0
     316.0
     320.0
     324.0
     328.0
     332.0
     336.0
     340.0
     344.0
     348.0
     352.0
     356.0
# background positions, in 2 theta (left/right)
      10.8000       11.6700
      10.8000       11.6700
      10.8000       11.6700
      10.8000       11.6700
      10.8000       11.6700
      10.8000       11.6700
      10.8000       11.6700
      10.8000       11.6700
      10.8000       11.6700
      10.8000       11.6700
      10.8000       11.6700
      10.8000       11.6700
      10.8000       11.6700
      10.8000       11.6700
      10.8000       11.6700
      10.8000       11.6700
      10.8000       11.6700
      10.8000       11.6700
      10.8000       11.6700
      10.8000       11.6700
      10.8000       11.6700
      10.8000       11.6700
      10.8000       11.6700
      10.8000       11.6700
      10.8000       11.6700
      10.8000       11.6700
      10.8000       11.6700
      10.8000       11.6700
      10.8000       11.6700
      10.8000       11.6700
      10.8000       11.6700
      10.8000       11.6700
      10.8000       11.6700
      10.8000       11.6700
      10.8000       11.6700
      10.8000       11.6700
      10.8000       11.6700
      10.8000       11.6700
      10.8000       11.6700
      10.8000       11.6700
      10.8000       11.6700
      10.8000       11.6700
      10.8000       11.6700
      10.8000       11.6700
      10.8000       11.6700
      10.8000       11.6700
      10.8000       11.6700
      10.8000       11.6700
      10.8000       11.6700
      10.8000       11.6700
      10.8000       11.6700
      10.8000       11.6700
      10.8000       11.6700
      10.8000       11.6700
      10.8000       11.6700
      10.8000       11.6700
      10.8000       11.6700
      10.8000       11.6700
      10.8000       11.6700
      10.8000       11.6700
      10.8000       11.6700
      10.8000       11.6700
      10.8000       11.6700
      10.8000       11.6700
      10.8000       11.6700
      10.8000       11.6700
      10.8000       11.6700
      10.8000       11.6700
      10.8000       11.6700
      10.8000       11.6700
      10.8000       11.6700
      10.8000       11.6700
      10.8000       11.6700
      10.8000       11.6700
      10.8000       11.6700
      10.8000       11.6700
      10.8000       11.6700
      10.8000       11.6700
      10.8000       11.6700
      10.8000       11.6700
      10.8000       11.6700
      10.8000       11.6700
      10.8000       11.6700
      10.8000       11.6700
      10.8000       11.6700
      10.8000       11.6700
      10.8000       11.6700
      10.8000       11.6700
      10.8000       11.6700
      10.8000       11.6700
# background coefficients
       4.2702        3.9505
       4.2702        3.9505
       4.2702        3.9505
       4.2702        3.9505
       4.2702        3.9505
       4.2702        3.9505
       4.2702        3.9505
       4.2702        3.9505
       4.2702        3.9505
       4.2702        3.9505
       4.2702        3.9505
       4.2702        3.9505
       4.2702        3.9505
       4.2702        3.9505
       4.2702        3.9505
       4.2702        3.9505
       4.2702        3.9505
       4.2702        3.9505
       4.2702        3.9505
       4.2702        3.9505
       4.2702        3.9505
       4.2702        3.9505
       4.2702        3.9505
       4.2702        3.9505
       4.2702        3.9505
       4.2702        3.9505
       4.2702        3.9505
       4.2702        3.9505
       4.2702        3.9505
       4.2702        3.9505
       4.2702        3.9505
       4.2702        3.9505
       4.2702        3.9505
       4.2702        3.9505
       4.2702        3.9505
       4.2702        3.9505
       4.2702        3.9505
       4.2702        3.9505
       4.2702        3.9505
       4.2702        3.9505
       4.2702        3.9505
       4.2702        3.9505
       4.2702        3.9505
       4.2702        3.9505
       4.2702        3.9505
       4.2702        3.9505
       4.2702        3.9505
       4.2702        3.9505
       4.2702        3.9505
       4.2702        3.9505
       4.2702        3.9505
       4.2702        3.9505
       4.2702        3.9505
       4.2702        3.9505
       4.2702        3.9505
       4.2702        3.9505
       4.2702        3.9505
       4.2702        3.9505
       4.2702        3.9505
       4.2702        3.9505
       4.2702        3.9505
       4.2702        3.9505
       4.2702        3.9505
       4.2702        3.9505
       4.2702        3.9505
       4.2702        3.9505
       4.2702        3.9505
       4.2702        3.9505
       4.2702        3.9505
       4.2702        3.9505
       4.2702        3.9505
       4.2702        3.9505
       4.2702        3.9505
       4.2702        3.9505
       4.2702        3.9505
       4.2702        3.9505
       4.2702        3.9505
       4.2702        3.9505
       4.2702        3.9505
       4.2702        3.9505
       4.2702        3.9505
       4.2702        3.9505
       4.2702        3.9505
       4.2702        3.9505
       4.2702        3.9505
       4.2702        3.9505
       4.2702        3.9505
       4.2702        3.9505
       4.2702        3.9505
       4.2702        3.9505
# Peak positions (2 theta), intensity, half-width, weight Gauss/Lorentz (for pseudo-voigt),
# peak number        0
      11.2019       44.8672        0.0363        0.1000
      11.2012       44.7836        0.0363        0.1000
      11.2004       44.7827        0.0363        0.1000
      11.1994       44.8645        0.0363        0.1000
      11.1983       45.0276        0.0363        0.1000
      11.1971       45.2686        0.0363        0.1000
      11.1959       45.5829        0.0363        0.1000
      11.1945       45.9643        0.0363        0.1000
      11.1932       46.4055        0.0363        0.1000
      11.1918       46.8979        0.0363        0.1000
      11.1904       47.4319        0.0363        0.1000
      11.1892       47.9970        0.0363        0.1000
      11.1879       48.5824        0.0363        0.1000
      11.1868       49.1765        0.0363        0.1000
      11.1858       49.7678        0.0363        0.1000
      11.1850       50.3449        0.0363        0.1000
      11.1843       50.8965        0.0363        0.1000
      11.1838       51.4118        0.0363        0.1000
      11.1834       51.8808        0.0363        0.1000
      11.1833       52.2944        0.0363        0.1000
      11.1834       52.6446        0.0363        0.1000
      11.1837       52.9245        0.0363        0.1000
      11.1842       53.1287        0.0363        0.1000
      11.1848       53.2531        0.0363        0.1000
      11.1857       53.2955        0.0363        0.1000
      11.1867       53.2549        0.0363        0.1000
      11.1878       53.1322        0.0363        0.1000
      11.1891       52.9297        0.0363        0.1000
      11.1905       52.6513        0.0363        0.1000
      11.1919       52.3026        0.0363        0.1000
      11.1933       51.8903        0.0363        0.1000
      11.1948       51.4223        0.0363        0.1000
      11.1963       50.9079        0.0363        0.1000
      11.1976       50.3570        0.0363        0.1000
      11.1990       49.7803        0.0363        0.1000
      11.2002       49.1892        0.0363        0.1000
      11.2012       48.5950        0.0363        0.1000
      11.2021       48.0094        0.0363        0.1000
      11.2029       47.4437        0.0363        0.1000
      11.2034       46.9089        0.0363        0.1000
      11.2038       46.4155        0.0363        0.1000
      11.2040       45.9731        0.0363        0.1000
      11.2039       45.5903        0.0363        0.1000
      11.2037       45.2745        0.0363        0.1000
      11.2033       45.0319        0.0363        0.1000
      11.2027       44.8672        0.0363        0.1000
      11.2019       44.7836        0.0363        0.1000
      11.2010       44.7827        0.0363        0.1000
      11.1999       44.8645        0.0363        0.1000
      11.1987       45.0276        0.0363        0.1000
      11.1975       45.2686        0.0363        0.1000
      11.1962       45.5829        0.0363        0.1000
      11.1948       45.9643        0.0363        0.1000
      11.1935       46.4055        0.0363        0.1000
      11.1921       46.8979        0.0363        0.1000
      11.1908       47.4319        0.0363        0.1000
      11.1896       47.9970        0.0363        0.1000
      11.1885       48.5824        0.0363        0.1000
      11.1875       49.1765        0.0363        0.1000
      11.1866       49.7678        0.0363        0.1000
      11.1859       50.3449        0.0363        0.1000
      11.1853       50.8965        0.0363        0.1000
      11.1849       51.4118        0.0363        0.1000
      11.1847       51.8808        0.0363        0.1000
      11.1846       52.2944        0.0363        0.1000
      11.1848       52.6446        0.0363        0.1000
      11.1850       52.9245        0.0363        0.1000
      11.1855       53.1287        0.0363        0.1000
      11.1861       53.2531        0.0363        0.1000
      11.1869       53.2955        0.0363        0.1000
      11.1878       53.2549        0.0363        0.1000
      11.1888       53.1322        0.0363        0.1000
      11.1899       52.9297        0.0363        0.1000
      11.1910       52.6513        0.0363        0.1000
      11.1922       52.3026        0.0363        0.1000
      11.1935       51.8903        0.0363        0.1000
      11.1947       51.4223        0.0363        0.1000
      11.1960       50.9079        0.0363        0.1000
      11.1971       50.3570        0.0363        0.1000
      11.1983       49.7803        0.0363        0.1000
      11.1993       49.1892        0.0363        0.1000
      11.2003       48.5950        0.0363        0.1000
      11.2011       48.0094        0.0363        0.1000
      11.2018       47.4437        0.0363        0.1000
      11.2023       46.9089        0.0363        0.1000
      11.2027       46.4155        0.0363        0.1000
      11.2029       45.9731        0.0363        0.1000
      11.2029       45.5903        0.0363        0.1000
      11.2027       45.2745        0.0363        0.1000
      11.2024       45.0319        0.0363        0.1000
# peak number        1
      11.5595      763.1801        0.0345        0.6960
      11.5602      638.5685        0.0345        0.6960
      11.5607      352.1251        0.0345        0.6960
      11.5609      163.0826        0.0345        0.6960
      11.5609       92.6723        0.0345        0.6960
      11.5607       52.9520        0.0345        0.6960
      11.5602       27.3396        0.0345        0.6960
      11.5594       21.8795        0.0345        0.6960
      11.5584       26.1371        0.0345        0.6960
      11.5572       23.2829        0.0345        0.6960
      11.5557       26.8031        0.0345        0.6960
      11.5541       56.5735        0.0345        0.6960
      11.5523       92.7741        0.0345        0.6960
      11.5504      134.5714        0.0345        0.6960
      11.5483      188.1438        0.0345        0.6960
      11.5463      207.4083        0.0345        0.6960
      11.5443      168.7120        0.0345        0.6960
      11.5423      105.0828        0.0345        0.6960
      11.5404       56.7677        0.0345        0.6960
      11.5387       46.9285        0.0345        0.6960
      11.5372       58.0138        0.0345        0.6960
      11.5359       67.3080        0.0345        0.6960
      11.5350       76.3280        0.0345        0.6960
      11.5343       71.5122        0.0345        0.6960
      11.5340       56.0230        0.0345        0.6960
      11.5341       58.0434        0.0345        0.6960
      11.5346       71.2857        0.0345        0.6960
      11.5354       89.8393        0.0345        0.6960
      11.5366      129.4160        0.0345        0.6960
      11.5382      181.6225        0.0345        0.6960
      11.5401      210.2851        0.0345        0.6960
      11.5423      175.0324        0.0345        0.6960
      11.5447       96.2415        0.0345        0.6960
      11.5474       46.2777        0.0345        0.6960
      11.5503       30.8284        0.0345        0.6960
      11.5532       18.8038        0.0345        0.6960
      11.5561       15.8462        0.0345        0.6960
      11.5591       17.2585        0.0345        0.6960
      11.5619       21.4442        0.0345        0.6960
      11.5646       34.3684        0.0345        0.6960
      11.5671       45.8149        0.0345        0.6960
      11.5694       86.2197        0.0345        0.6960
      11.5713      188.7938        0.0345        0.6960
      11.5729      360.7878        0.0345        0.6960
      11.5741      603.9472        0.0345        0.6960
      11.5749      763.1801        0.0345        0.6960
      11.5753      638.5685        0.0345        0.6960
      11.5753      352.1251        0.0345        0.6960
      11.5749      163.0826        0.0345        0.6960
      11.5741       92.6723        0.0345        0.6960
      11.5730       52.9520        0.0345        0.6960
      11.5715       27.3396        0.0345        0.6960
      11.5697       21.8795        0.0345        0.6960
      11.5677       26.1371        0.0345        0.6960
      11.5655       23.2829        0.0345        0.6960
      11.5631       26.8031        0.0345        0.6960
      11.5606       56.5735        0.0345        0.6960
      11.5580       92.7741        0.0345        0.6960
      11.5555      134.5714        0.0345        0.6960
      11.5529      188.1438        0.0345        0.6960
      11.5505      207.4083        0.0345        0.6960
      11.5482      168.7120        0.0345        0.6960
      11.5460      105.0828        0.0345        0.6960
      11.5441       56.7677        0.0345        0.6960
      11.5423       46.9285        0.0345        0.6960
      11.5408       58.0138        0.0345        0.6960
      11.5395       67.3080        0.0345        0.6960
      11.5385       76.3280        0.0345        0.6960
      11.5378       71.5122        0.0345        0.6960
      11.5373       56.0230        0.0345        0.6960
      11.5370       58.0434        0.0345        0.6960
      11.5370       71.2857        0.0345        0.6960
      11.5373       89.8393        0.0345        0.6960
      11.5378      129.4160        0.0345        0.6960
      11.5384      181.6225        0.0345        0.6960
      11.5393      210.2851        0.0345        0.6960
      11.5403      175.0324        0.0345        0.6960
      11.5415       96.2415        0.0345        0.6960
      11.5428       46.2777        0.0345        0.6960
      11.5443       30.8284        0.0345        0.6960
      11.5458       18.8038        0.0345        0.6960
      11.5473       15.8462        0.0345        0.6960
      11.5489       17.2585        0.0345        0.6960
      11.5505       21.4442        0.0345        0.6960
      11.5520       34.3684        0.0345        0.6960
      11.5535       45.8149        0.0345        0.6960
      11.5550       86.2197        0.0345        0.6960
      11.5563      188.7938        0.0345        0.6960
      11.5575      360.7878        0.0345        0.6960
      11.5586      603.9472        0.0345        0.6960
# Sub-patterns        1
# Number of peaks
       1
# Peak profile
       1
# Width factor
     15.00000
# Range in azimuth: nvalues, and values
        90
       0.0
       4.0
       8.0
      12.0
      16.0
      20.0
      24.0
      28.0
      32.0
      36.0
      40.0
      44.0
      48.0
      52.0
      56.0
      60.0
      64.0
      68.0
      72.0
      76.0
      80.0
      84.0
      88.0
      92.0
      96.0
     100.0
     104.0
     108.0
     112.0
     116.0
     120.0
     124.0
     128.0
     132.0
     136.0
     140.0
     144.0
     148.0
     152.0
     156.0
     160.0
     164.0
     168.0
     172.0
     176.0
     180.0
     184.0
     188.0
     192.0
     196.0
     200.0
     204.0
     208.0
     212.0
     216.0
     220.0
     224.0
     228.0
     232.0
     236.0
     240.0
     244.0
     248.0
     252.0
     256.0
     260.0
     264.0
     268.0
     272.0
     276.0
     280.0
     284.0
     288.0
     292.0
     296.0
     300.0
     304.0
     308.0
     312.0
     316.0
     320.0
     324.0
     328.0
     332.0
     336.0
     340.0
     344.0
     348.0
     352.0
     356.0
# background positions, in 2 theta (left/right)
      16.1000       16.6000
      16.1000       16.6000
      16.1000       16.6000
      16.1000       16.6000
      16.1000       16.6000
      16.1000       16.6000
      16.1000       16.6000
      16.1000       16.6000
      16.1000       16.6000
      16.1000       16.6000
      16.1000       16.6000
      16.1000       16.6000
      16.1000       16.6000
      16.1000       16.6000
      16.1000       16.6000
      16.1000       16.6000
      16.1000       16.6000
      16.1000       16.6000
      16.1000       16.6000
      16.1000       16.6000
      16.1000       16.6000
      16.1000       16.6000
      16.1000       16.6000
      16.1000       16.6000
      16.1000       16.6000
      16.1000       16.6000
      16.1000       16.6000
      16.1000       16.6000
      16.1000       16.6000
      16.1000       16.6000
      16.1000       16.6000
      16.1000       16.6000
      16.1000       16.6000
      16.1000       16.6000
      16.1000       16.6000
      16.1000       16.6000
      16.1000       16.6000
      16.1000       16.6000
      16.1000       16.6000
      16.1000       16.6000
      16.1000       16.6000
      16.1000       16.6000
      16.1000       16.6000
      16.1000       16.6000
      16.1000       16.6000
      16.1000       16.6000
      16.1000       16.6000
      16.1000       16.6000
      16.1000       16.6000
      16.1000       16.6000
      16.1000       16.6000
      16.1000       16.6000
      16.1000       16.6000
      16.1000       16.6000
      16.1000       16.6000
      16.1000       16.6000
      16.1000       16.6000
      16.1000       16.6000
      16.1000       16.6000
      16.1000       16.6000
      16.1000       16.6000
      16.1000       16.6000
      16.1000       16.6000
      16.1000       16.6000
      16.1000       16.6000
      16.1000       16.6000
      16.1000       16.6000
      16.1000       16.6000
      16.1000       16.6000
      16.1000       16.6000
      16.1000       16.6000
      16.1000       16.6000
      16.1000       16.6000
      16.1000       16.6000
      16.1000       16.6000
      16.1000       16.6000
      16.1000       16.6000
      16.1000       16.6000
      16.1000       16.6000
      16.1000       16.6000
      16.1000       16.6000
      16.1000       16.6000
      16.1000       16.6000
      16.1000       16.6000
      16.1000       16.6000
      16.1000       16.6000
      16.1000       16.6000
      16.1000       16.6000
      16.1000       16.6000
      16.1000       16.6000
# background coefficients
       5.0416        0.4659
       5.0416        0.4659
       5.0416        0.4659
       5.0416        0.4659
       5.0416        0.4659
       5.0416        0.4659
       5.0416        0.4659
       5.0416        0.4659
       5.0416        0.4659
       5.0416        0.4659
       5.0416        0.4659
       5.0416        0.4659
       5.0416        0.4659
       5.0416        0.4659
       5.0416        0.4659
       5.0416        0.4659
       5.0416        0.4659
       5.0416        0.4659
       5.0416        0.4659
       5.0416        0.4659
       5.0416        0.4659
       5.0416        0.4659
       5.0416        0.4659
       5.0416        0.4659
       5.0416        0.4659
       5.0416        0.4659
       5.0416        0.4659
       5.0416        0.4659
       5.0416        0.4659
       5.0416        0.4659
       5.0416        0.4659
       5.0416        0.4659
       5.0416        0.4659
       5.0416        0.4659
       5.0416        0.4659
       5.0416        0.4659
       5.0416        0.4659
       5.0416        0.4659
       5.0416        0.4659
       5.0416        0.4659
       5.0416        0.4659
       5.0416        0.4659
       5.0416        0.4659
       5.0416        0.4659
       5.0416        0.4659
       5.0416        0.4659
       5.0416        0.4659
       5.0416        0.4659
       5.0416        0.4659
       5.0416        0.4659
       5.0416        0.4659
       5.0416        0.4659
       5.0416        0.4659
       5.0416        0.4659
       5.0416        0.4659
       5.0416        0.4659
       5.0416        0.4659
       5.0416        0.4659
       5.0416        0.4659
       5.0416        0.4659
       5.0416        0.4659
       5.0416        0.4659
       5.0416        0.4659
       5.0416        0.4659
       5.0416        0.4659
       5.0416        0.4659
       5.0416        0.4659
       5.0416        0.4659
       5.0416        0.4659
       5.0416        0.4659
       5.0416        0.4659
       5.0416        0.4659
       5.0416        0.4659
       5.0416        0.4659
       5.0416        0.4659
       5.0416        0.4659
       5.0416        0.4659
       5.0416        0.4659
       5.0416        0.4659
       5.0416        0.4659
       5.0416        0.4659
       5.0416        0.4659
       5.0416        0.4659
       5.0416        0.4659
       5.0416        0.4659
       5.0416        0.4659
       5.0416        0.4659
       5.0416        0.4659
       5.0416        0.4659
       5.0416        0.4659
# Peak positions (2 theta), intensity, half-width, weight Gauss/Lorentz (for pseudo-voigt),
# peak number        0
      16.3823        2.2033        0.0583        0.6199
      16.3844        2.2669        0.0583        0.6199
      16.3859        2.3535        0.0583        0.6199
      16.3869        2.8753        0.0583        0.6199
      16.3874        3.7885        0.0583        0.6199
      16.3872        4.6934        0.0583        0.6199
      16.3865        5.5629        0.0583        0.6199
      16.3851        7.0521        0.0583        0.6199
      16.3832        9.7637        0.0583        0.6199
      16.3807       13.1838        0.0583        0.6199
      16.3777       15.6369        0.0583        0.6199
      16.3743       15.6061        0.0583        0.6199
      16.3706       13.1684        0.0583        0.6199
      16.3666        9.9631        0.0583        0.6199
      16.3624        7.6130        0.0583        0.6199
      16.3582        6.2628        0.0583        0.6199
      16.3541        4.8807        0.0583        0.6199
      16.3501        3.0361        0.0583        0.6199
      16.3464        2.0917        0.0583        0.6199
      16.3430        4.1938        0.0583        0.6199
      16.3400        9.8239        0.0583        0.6199
      16.3375       16.4640        0.0583        0.6199
      16.3356       20.0787        0.0583        0.6199
      16.3343       18.3188        0.0583        0.6199
      16.3336       12.4861        0.0583        0.6199
      16.3335        6.3766        0.0583        0.6199
      16.3340        3.1228        0.0583        0.6199
      16.3352        3.0307        0.0583        0.6199
      16.3369        4.2599        0.0583        0.6199
      16.3391        5.2833        0.0583        0.6199
      16.3418        6.4182        0.0583        0.6199
      16.3448        8.9593        0.0583        0.6199
      16.3482       13.1108        0.0583        0.6199
      16.3517       17.1333        0.0583        0.6199
      16.3554       18.6970        0.0583        0.6199
      16.3591       17.0082        0.0583        0.6199
      16.3628       13.4858        0.0583        0.6199
      16.3664       10.3549        0.0583        0.6199
      16.3698        8.6860        0.0583        0.6199
      16.3729        7.8323        0.0583        0.6199
      16.3757        6.5968        0.0583        0.6199
      16.3782        4.6715        0.0583        0.6199
      16.3802        2.8347        0.0583        0.6199
      16.3819        1.9282        0.0583        0.6199
      16.3832        1.9422        0.0583        0.6199
      16.3840        2.2033        0.0583        0.6199
      16.3845        2.2669        0.0583        0.6199
      16.3845        2.3535        0.0583        0.6199
      16.3842        2.8753        0.0583        0.6199
      16.3835        3.7885        0.0583        0.6199
      16.3826        4.6934        0.0583        0.6199
      16.3813        5.5629        0.0583        0.6199
      16.3798        7.0521        0.0583        0.6199
      16.3781        9.7637        0.0583        0.6199
      16.3762       13.1838        0.0583        0.6199
      16.3742       15.6369        0.0583        0.6199
      16.3720       15.6061        0.0583        0.6199
      16.3698       13.1684        0.0583        0.6199
      16.3675        9.9631        0.0583        0.6199
      16.3652        7.6130        0.0583        0.6199
      16.3629        6.2628        0.0583        0.6199
      16.3605        4.8807        0.0583        0.6199
      16.3583        3.0361        0.0583        0.6199
      16.3560        2.0917        0.0583        0.6199
      16.3539        4.1938        0.0583        0.6199
      16.3518        9.8239        0.0583        0.6199
      16.3499       16.4640        0.0583        0.6199
      16.3482       20.0787        0.0583        0.6199
      16.3467       18.3188        0.0583        0.6199
      16.3453       12.4861        0.0583        0.6199
      16.3443        6.3766        0.0583        0.6199
      16.3435        3.1228        0.0583        0.6199
      16.3430        3.0307        0.0583        0.6199
      16.3428        4.2599        0.0583        0.6199
      16.3430        5.2833        0.0583        0.6199
      16.3436        6.4182        0.0583        0.6199
      16.3446        8.9593        0.0583        0.6199
      16.3459       13.1108        0.0583        0.6199
      16.3476       17.1333        0.0583        0.6199
      16.3497       18.6970        0.0583        0.6199
      16.3521       17.0082        0.0583        0.6199
      16.3548       13.4858        0.0583        0.6199
      16.3578       10.3549        0.0583        0.6199
      16.3609        8.6860        0.0583        0.6199
      16.3642        7.8323        0.0583        0.6199
      16.3675        6.5968        0.0583        0.6199
      16.3708        4.6715        0.0583        0.6199
      16.3741        2.8347        0.0583        0.6199
      16.3771        1.9282        0.0583        0.6199
      16.3799        1.9422        0.0583        0.6199
# Sub-patterns        2
# Number of peaks
       1
# Peak profile
       1
# Width factor
     15.00000
# Range in azimuth: nvalues, and values
        90
       0.0
       4.0
       8.0
      12.0
      16.0
      20.0
      24.0
      28.0
      32.0
      36.0
      40.0
      44.0
      48.0
      52.0
      56.0
      60.0
      64.0
      68.0
      72.0
      76.0
      80.0
      84.0
      88.0
      92.0
      96.0
     100.0
     104.0
     108.0
     112.0
     116.0
     120.0
     124.0
     128.0
     132.0
     136.0
     140.0
     144.0
     148.0
     152.0
     156.0
     160.0
     164.0
     168.0
     172.0
     176.0
     180.0
     184.0
     188.0
     192.0
     196.0
     200.0
     204.0
     208.0
     212.0
     216.0
     220.0
     224.0
     228.0
     232.0
     236.0
     240.0
     244.0
     248.0
     252.0
     256.0
     260.0
     264.0
     268.0
     272.0
     276.0
     280.0
     284.0
     288.0
     292.0
     296.0
     300.0
     304.0
     308.0
     312.0
     316.0
     320.0
     324.0
     328.0
     332.0
     336.0
     340.0
     344.0
     348.0
     352.0
     356.0
# background positions, in 2 theta (left/right)
      19.8000       20.2700
      19.8000       20.2700
      19.8000       20.2700
      19.8000       20.2700
      19.8000       20.2700
      19.8000       20.2700
      19.8000       20.2700
      19.8000       20.2700
      19.8000       20.2700
      19.8000       20.2700
      19.8000       20.2700
      19.8000       20.2700
      19.8000       20.2700
      19.8000       20.2700
      19.8000       20.2700
      19.8000       20.2700
      19.8000       20.2700
      19.8000       20.2700
      19.8000       20.2700
      19.8000       20.2700
      19.8000       20.2700
      19.8000       20.2700
      19.8000       20.2700
      19.8000       20.2700
      19.8000       20.2700
      19.8000       20.2700
      19.8000       20.2700
      19.8000       20.2700
      19.8000       20.2700
      19.8000       20.2700
      19.8000       20.2700
      19.8000       20.2700
      19.8000       20.2700
      19.8000       20.2700
      19.8000       20.2700
      19.8000       20.2700
      19.8000       20.2700
      19.8000       20.2700
      19.8000       20.2700
      19.8000       20.2700
      19.8000       20.2700
      19.8000       20.2700
      19.8000       20.2700
      19.8000       20.2700
      19.8000       20.2700
      19.8000       20.2700
      19.8000       20.2700
      19.8000       20.2700
      19.8000       20.2700
      19.8000       20.2700
      19.8000       20.2700
      19.8000       20.2700
      19.8000       20.2700
      19.8000       20.2700
      19.8000       20.2700
      19.8000       20.2700
      19.8000       20.2700
      19.8000       20.2700
      19.8000       20.2700
      19.8000       20.2700
      19.8000       20.2700
      19.8000       20.2700
      19.8000       20.2700
      19.8000       20.2700
      19.8000       20.2700
      19.8000       20.2700
      19.8000       20.2700
      19.8000       20.2700
      19.8000       20.2700
      19.8000       20.2700
      19.8000       20.2700
      19.8000       20.2700
      19.8000       20.2700
      19.8000       20.2700
      19.8000       20.2700
      19.8000       20.2700
      19.8000       20.2700
      19.8000       20.2700
      19.8000       20.2700
      19.8000       20.2700
      19.8000       20.2700
      19.8000       20.2700
      19.8000       20.2700
      19.8000       20.2700
      19.8000       20.2700
      19.8000       20.2700
      19.8000       20.2700
      19.8000       20.2700
      19.8000       20.2700
      19.8000       20.2700
# background coefficients
       5.0667        0.7636
       5.0667        0.7636
       5.0667        0.7636
       5.0667        0.7636
       5.0667        0.7636
       5.0667        0.7636
       5.0667        0.7636
       5.0667        0.7636
       5.0667        0.7636
       5.0667        0.7636
       5.0667        0.7636
       5.0667        0.7636
       5.0667        0.7636
       5.0667        0.7636
       5.0667        0.7636
       5.0667        0.7636
       5.0667        0.7636
       5.0667        0.7636
       5.0667        0.7636
       5.0667        0.7636
       5.0667        0.7636
       5.0667        0.7636
       5.0667        0.7636
       5.0667        0.7636
       5.0667        0.7636
       5.0667        0.7636
       5.0667        0.7636
       5.0667        0.7636
       5.0667        0.7636
       5.0667        0.7636
       5.0667        0.7636
       5.0667        0.7636
       5.0667        0.7636
       5.0667        0.7636
       5.0667        0.7636
       5.0667        0.7636
       5.0667        0.7636
       5.0667        0.7636
       5.0667        0.7636
       5.0667        0.7636
       5.0667        0.7636
       5.0667        0.7636
       5.0667        0.7636
       5.0667        0.7636
       5.0667        0.7636
       5.0667        0.7636
       5.0667        0.7636
       5.0667        0.7636
       5.0667        0.7636
       5.0667        0.7636
       5.0667        0.7636
       5.0667        0.7636
       5.0667        0.7636
       5.0667        0.7636
       5.0667        0.7636
       5.0667        0.7636
       5.0667        0.7636
       5.0667        0.7636
       5.0667        0.7636
       5.0667        0.7636
       5.0667        0.7636
       5.0667        0.7636
       5.0667        0.7636
       5.0667        0.7636
       5.0667        0.7636
       5.0667        0.7636
       5.0667        0.7636
       5.0667        0.7636
       5.0667        0.7636
       5.0667        0.7636
       5.0667        0.7636
       5.0667        0.7636
       5.0667        0.7636
       5.0667        0.7636
       5.0667        0.7636
       5.0667        0.7636
       5.0667        0.7636
       5.0667        0.7636
       5.0667        0.7636
       5.0667        0.7636
       5.0667        0.7636
       5.0667        0.7636
       5.0667        0.7636
       5.0667        0.7636
       5.0667        0.7636
       5.0667        0.7636
       5.0667        0.7636
       5.0667        0.7636
       5.0667        0.7636
       5.0667        0.7636
# Peak positions (2 theta), intensity, half-width, weight Gauss/Lorentz (for pseudo-voigt),
# peak number        0
      20.0966        3.9191        0.0538        0.7500
      20.0984        3.0849        0.0538        0.7824
      20.0996        2.0729        0.0538        0.8092
      20.1001        4.7842        0.0538        0.8301
      20.1000       12.7761        0.0538        0.8445
      20.0991       23.2517        0.0538        0.8522
      20.0976       30.8573        0.0538        0.8531
      20.0954       31.7368        0.0538        0.8471
      20.0926       26.3814        0.0538        0.8343
      20.0892       18.9961        0.0538        0.8150
      20.0854       14.1533        0.0538        0.7896
      20.0811       13.6395        0.0538        0.7586
      20.0766       15.8910        0.0538        0.7225
      20.0719       18.0011        0.0538        0.6821
      20.0671       18.2521        0.0538        0.6381
      20.0624       17.1100        0.0538        0.5915
      20.0578       16.2726        0.0538        0.5431
      20.0535       16.9937        0.0538        0.4938
      20.0495       19.1812        0.0538        0.4447
      20.0460       21.7648        0.0538        0.3966
      20.0430       23.6903        0.0538        0.3506
      20.0407       24.5795        0.0538        0.3074
      20.0389       24.6446        0.0538        0.2680
      20.0379       24.1771        0.0538        0.2332
      20.0376       23.2091        0.0538        0.2035
      20.0380       21.6551        0.0538        0.1796
      20.0390       19.7289        0.0538        0.1619
      20.0408       18.1385        0.0538        0.1508
      20.0431       17.7157        0.0538        0.1465
      20.0460       18.6490        0.0538        0.1491
      20.0494       19.9881        0.0538        0.1585
      20.0532       20.0858        0.0538        0.1746
      20.0573       17.9537        0.0538        0.1969
      20.0617       14.5528        0.0538        0.2252
      20.0662       12.7011        0.0538        0.2589
      20.0707       15.1593        0.0538        0.2972
      20.0752       22.0857        0.0538        0.3395
      20.0796       30.0194        0.0538        0.3849
      20.0837       33.7068        0.0538        0.4325
      20.0876       29.7895        0.0538        0.4815
      20.0911       19.5205        0.0538        0.5308
      20.0943        8.1132        0.0538        0.5795
      20.0970        0.9967        0.0538        0.6267
      20.0992       -0.0529        0.0538        0.6714
      20.1009        2.3096        0.0538        0.7128
      20.1022        3.9191        0.0538        0.7500
      20.1029        3.0849        0.0538        0.7824
      20.1031        2.0729        0.0538        0.8092
      20.1028        4.7842        0.0538        0.8301
      20.1021       12.7761        0.0538        0.8445
      20.1009       23.2517        0.0538        0.8522
      20.0993       30.8573        0.0538        0.8531
      20.0974       31.7368        0.0538        0.8471
      20.0951       26.3814        0.0538        0.8343
      20.0924       18.9961        0.0538        0.8150
      20.0896       14.1533        0.0538        0.7896
      20.0865       13.6395        0.0538        0.7586
      20.0832       15.8910        0.0538        0.7225
      20.0798       18.0011        0.0538        0.6821
      20.0764       18.2521        0.0538        0.6381
      20.0729       17.1100        0.0538        0.5915
      20.0694       16.2726        0.0538        0.5431
      20.0660       16.9937        0.0538        0.4938
      20.0627       19.1812        0.0538        0.4447
      20.0595       21.7648        0.0538        0.3966
      20.0566       23.6903        0.0538        0.3506
      20.0539       24.5795        0.0538        0.3074
      20.0515       24.6446        0.0538        0.2680
      20.0495       24.1771        0.0538        0.2332
      20.0479       23.2091        0.0538        0.2035
      20.0466       21.6551        0.0538        0.1796
      20.0459       19.7289        0.0538        0.1619
      20.0456       18.1385        0.0538        0.1508
      20.0458       17.7157        0.0538        0.1465
      20.0465       18.6490        0.0538        0.1491
      20.0478       19.9881        0.0538        0.1585
      20.0495       20.0858        0.0538        0.1746
      20.0517       17.9537        0.0538        0.1969
      20.0544       14.5528        0.0538        0.2252
      20.0574       12.7011        0.0538        0.2589
      20.0609       15.1593        0.0538        0.2972
      20.0645       22.0857        0.0538        0.3395
      20.0684       30.0194        0.0538        0.3849
      20.0725       33.7068        0.0538        0.4325
      20.0765       29.7895        0.0538        0.4815
      20.0806       19.5205        0.0538        0.5308
      20.0844        8.1132        0.0538        0.5795
      20.0880        0.9967        0.0538        0.6267
      20.0913       -0.0529        0.0538        0.6714
      20.0942        2.3096        0.0538        0.7128
# Sub-patterns        3
# Number of peaks
       1
# Peak profile
       1
# Width factor
     15.00000
# Range in azimuth: nvalues, and values
        90
       0.0
       4.0
       8.0
      12.0
      16.0
      20.0
      24.0
      28.0
      32.0
      36.0
      40.0
      44.0
      48.0
      52.0
      56.0
      60.0
      64.0
      68.0
      72.0
      76.0
      80.0
      84.0
      88.0
      92.0
      96.0
     100.0
     104.0
     108.0
     112.0
     116.0
     120.0
     124.0
     128.0
     132.0
     136.0
     140.0
     144.0
     148.0
     152.0
     156.0
     160.0
     164.0
     168.0
     172.0
     176.0
     180.0
     184.0
     188.0
     192.0
     196.0
     200.0
     204.0
     208.0
     212.0
     216.0
     220.0
     224.0
     228.0
     232.0
     236.0
     240.0
     244.0
     248.0
     252.0
     256.0
     260.0
     264.0
     268.0
     272.0
     276.0
     280.0
     284.0
     288.0
     292.0
     296.0
     300.0
     304.0
     308.0
     312.0
     316.0
     320.0
     324.0
     328.0
     332.0
     336.0
     340.0
     344.0
     348.0
     352.0
     356.0
# background positions, in 2 theta (left/right)
      23.1001       23.5000
      23.1001       23.5000
      23.1001       23.5000
      23.1001       23.5000
      23.1001       23.5000
      23.1001       23.5000
      23.1001       23.5000
      23.1001       23.5000
      23.1001       23.5000
      23.1001       23.5000
      23.1001       23.5000
      23.1001       23.5000
      23.1001       23.5000
      23.1001       23.5000
      23.1001       23.5000
      23.1001       23.5000
      23.1001       23.5000
      23.1001       23.5000
      23.1001       23.5000
      23.1001       23.5000
      23.1001       23.5000
      23.1001       23.5000
      23.1001       23.5000
      23.1001       23.5000
      23.1001       23.5000
      23.1001       23.5000
      23.1001       23.5000
      23.1001       23.5000
      23.1001       23.5000
      23.1001       23.5000
      23.1001       23.5000
      23.1001       23.5000
      23.1001       23.5000
      23.1001       23.5000
      23.1001       23.5000
      23.1001       23.5000
      23.1001       23.5000
      23.1001       23.5000
      23.1001       23.5000
      23.1001       23.5000
      23.1001       23.5000
      23.1001       23.5000
      23.1001       23.5000
      23.1001       23.5000
      23.1001       23.5000
      23.1001       23.5000
      23.1001       23.5000
      23.1001       23.5000
      23.1001       23.5000
      23.1001       23.5000
      23.1001       23.5000
      23.1001       23.5000
      23.1001       23.5000
      23.1001       23.5000
      23.1001       23.5000
      23.1001       23.5000
      23.1001       23.5000
      23.1001       23.5000
      23.1001       23.5000
      23.1001       23.5000
      23.1001       23.5000
      23.1001       23.5000
      23.1001       23.5000
      23.1001       23.5000
      23.1001       23.5000
      23.1001       23.5000
      23.1001       23.5000
      23.1001       23.5000
      23.1001       23.5000
      23.1001       23.5000
      23.1001       23.5000
      23.1001       23.5000
      23.1001       23.5000
      23.1001       23.5000
      23.1001       23.5000
      23.1001       23.5000
      23.1001       23.5000
      23.1001       23.5000
      23.1001       23.5000
      23.1001       23.5000
      23.1001       23.5000
      23.1001       23.5000
      23.1001       23.5000
      23.1001       23.5000
      23.1001       23.5000
      23.1001       23.5000
      23.1001       23.5000
      23.1001       23.5000
      23.1001       23.5000
      23.1001       23.5000
# background coefficients
       5.9362       -3.4094
       5.9184       -3.3143
       5.9110       -3.2247
       5.9142       -3.1425
       5.9277       -3.0692
       5.9514       -3.0063
       5.9846       -2.9549
       6.0266       -2.9162
       6.0765       -2.8909
       6.1334       -2.8796
       6.1959       -2.8825
       6.2630       -2.8998
       6.3332       -2.9311
       6.4051       -2.9759
       6.4773       -3.0335
       6.5484       -3.1029
       6.6169       -3.1829
       6.6815       -3.2720
       6.7409       -3.3688
       6.7941       -3.4714
       6.8399       -3.5780
       6.8774       -3.6868
       6.9061       -3.7957
       6.9252       -3.9030
       6.9346       -4.0065
       6.9340       -4.1046
       6.9235       -4.1955
       6.9033       -4.2776
       6.8740       -4.3495
       6.8360       -4.4101
       6.7903       -4.4582
       6.7378       -4.4932
       6.6796       -4.5146
       6.6168       -4.5220
       6.5509       -4.5156
       6.4831       -4.4956
       6.4148       -4.4626
       6.3475       -4.4174
       6.2827       -4.3609
       6.2215       -4.2944
       6.1654       -4.2193
       6.1154       -4.1372
       6.0727       -4.0497
       6.0382       -3.9588
       6.0127       -3.8661
       5.9967       -3.7736
       5.9906       -3.6831
       5.9947       -3.5963
       6.0089       -3.5152
       6.0330       -3.4411
       6.0667       -3.3755
       6.1094       -3.3198
       6.1603       -3.2749
       6.2185       -3.2416
       6.2829       -3.2207
       6.3523       -3.2123
       6.4254       -3.2166
       6.5009       -3.2335
       6.5772       -3.2624
       6.6530       -3.3026
       6.7268       -3.3534
       6.7972       -3.4136
       6.8628       -3.4817
       6.9224       -3.5565
       6.9748       -3.6362
       7.0190       -3.7191
       7.0540       -3.8034
       7.0793       -3.8874
       7.0942       -3.9692
       7.0985       -4.0470
       7.0921       -4.1192
       7.0750       -4.1841
       7.0475       -4.2402
       7.0100       -4.2864
       6.9634       -4.3214
       6.9084       -4.3446
       6.8459       -4.3551
       6.7772       -4.3526
       6.7036       -4.3371
       6.6263       -4.3086
       6.5468       -4.2675
       6.4665       -4.2145
       6.3870       -4.1504
       6.3096       -4.0764
       6.2359       -3.9938
       6.1671       -3.9041
       6.1045       -3.8089
       6.0492       -3.7100
       6.0022       -3.6091
       5.9643       -3.5083
# Peak positions (2 theta), intensity, half-width, weight Gauss/Lorentz (for pseudo-voigt),
# peak number        0
      23.2408        9.2973        0.0538        0.5487
      23.2430        8.9319        0.0538        0.5487
      23.2447        7.4389        0.0538        0.5487
      23.2457        5.0936        0.0538        0.5487
      23.2460        2.7438        0.0538        0.5487
      23.2457        1.3187        0.0538        0.5487
      23.2448        1.0616        0.0538        0.5487
      23.2432        1.2989        0.0538        0.5487
      23.2410        1.1161        0.0538        0.5487
      23.2383        0.3576        0.0538        0.5487
      23.2351       -0.0714        0.0538        0.5487
      23.2315        0.9944        0.0538        0.5487
      23.2275        3.7771        0.0538        0.5487
      23.2233        7.1084        0.0538        0.5487
      23.2189        9.2117        0.0538        0.5487
      23.2144        9.0313        0.0538        0.5487
      23.2099        6.9474        0.0538        0.5487
      23.2055        4.3390        0.0538        0.5487
      23.2013        2.5161        0.0538        0.5487
      23.1974        1.9712        0.0538        0.5487
      23.1939        2.4069        0.0538        0.5487
      23.1908        3.2196        0.0538        0.5487
      23.1883        3.8758        0.0538        0.5487
      23.1863        4.0113        0.0538        0.5487
      23.1849        3.5007        0.0538        0.5487
      23.1842        2.6450        0.0538        0.5487
      23.1841        2.2179        0.0538        0.5487
      23.1848        3.0352        0.0538        0.5487
      23.1861        5.1987        0.0538        0.5487
      23.1881        7.7057        0.0538        0.5487
      23.1907        8.9762        0.0538        0.5487
      23.1939        8.0226        0.0538        0.5487
      23.1976        5.2673        0.0538        0.5487
      23.2019        2.2298        0.0538        0.5487
      23.2065        0.3244        0.0538        0.5487
      23.2114       -0.1513        0.0538        0.5487
      23.2166        0.0409        0.0538        0.5487
      23.2219        0.0388        0.0538        0.5487
      23.2272       -0.2541        0.0538        0.5487
      23.2324       -0.1919        0.0538        0.5487
      23.2375        0.8586        0.0538        0.5487
      23.2424        2.8751        0.0538        0.5487
      23.2469        5.2405        0.0538        0.5487
      23.2509        7.2915        0.0538        0.5487
      23.2545        8.6882        0.0538        0.5487
      23.2575        9.2973        0.0538        0.5487
      23.2598        8.9319        0.0538        0.5487
      23.2615        7.4389        0.0538        0.5487
      23.2624        5.0936        0.0538        0.5487
      23.2626        2.7438        0.0538        0.5487
      23.2621        1.3187        0.0538        0.5487
      23.2609        1.0616        0.0538        0.5487
      23.2589        1.2989        0.0538        0.5487
      23.2563        1.1161        0.0538        0.5487
      23.2530        0.3576        0.0538        0.5487
      23.2492       -0.0714        0.0538        0.5487
      23.2449        0.9944        0.0538        0.5487
      23.2402        3.7771        0.0538        0.5487
      23.2352        7.1084        0.0538        0.5487
      23.2299        9.2117        0.0538        0.5487
      23.2245        9.0313        0.0538        0.5487
      23.2191        6.9474        0.0538        0.5487
      23.2137        4.3390        0.0538        0.5487
      23.2085        2.5161        0.0538        0.5487
      23.2035        1.9712        0.0538        0.5487
      23.1989        2.4069        0.0538        0.5487
      23.1947        3.2196        0.0538        0.5487
      23.1910        3.8758        0.0538        0.5487
      23.1878        4.0113        0.0538        0.5487
      23.1853        3.5007        0.0538        0.5487
      23.1834        2.6450        0.0538        0.5487
      23.1822        2.2179        0.0538        0.5487
      23.1817        3.0352        0.0538        0.5487
      23.1819        5.1987        0.0538        0.5487
      23.1827        7.7057        0.0538        0.5487
      23.1843        8.9762        0.0538        0.5487
      23.1864        8.0226        0.0538        0.5487
      23.1891        5.2673        0.0538        0.5487
      23.1924        2.2298        0.0538        0.5487
      23.1960        0.3244        0.0538        0.5487
      23.2001       -0.1513        0.0538        0.5487
      23.2044        0.0409        0.0538        0.5487
      23.2089        0.0388        0.0538        0.5487
      23.2135       -0.2541        0.0538        0.5487
      23.2181       -0.1919        0.0538        0.5487
      23.2227        0.8586        0.0538        0.5487
      23.2270        2.8751        0.0538        0.5487
      23.2311        5.2405        0.0538        0.5487
      23.2348        7.2915        0.0538        0.5487
      23.2380        8.6882        0.0538        0.5487
# Sub-patterns        4
# Number of peaks
       1
# Peak profile
       1
# Width factor
     15.00000
# Range in azimuth: nvalues, and values
        90
       0.0
       4.0
       8.0
      12.0
      16.0
      20.0
      24.0
      28.0
      32.0
      36.0
      40.0
      44.0
      48.0
      52.0
      56.0
      60.0
      64.0
      68.0
      72.0
      76.0
      80.0
      84.0
      88.0
      92.0
      96.0
     100.0
     104.0
     108.0
     112.0
     116.0
     120.0
     124.0
     128.0
     132.0
     136.0
     140.0
     144.0
     148.0
     152.0
     156.0
     160.0
     164.0
     168.0
     172.0
     176.0
     180.0
     184.0
     188.0
     192.0
     196.0
     200.0
     204.0
     208.0
     212.0
     216.0
     220.0
     224.0
     228.0
     232.0
     236.0
     240.0
     244.0
     248.0
     252.0
     256.0
     260.0
     264.0
     268.0
     272.0
     276.0
     280.0
     284.0
     288.0
     292.0
     296.0
     300.0
     304.0
     308.0
     312.0
     316.0
     320.0
     324.0
     328.0
     332.0
     336.0
     340.0
     344.0
     348.0
     352.0
     356.0
# background positions, in 2 theta (left/right)
      25.7000       26.3999
      25.7000       26.3999
      25.7000       26.3999
      25.7000       26.3999
      25.7000       26.3999
      25.7000       26.3999
      25.7000       26.3999
      25.7000       26.3999
      25.7000       26.3999
      25.7000       26.3999
      25.7000       26.3999
      25.7000       26.3999
      25.7000       26.3999
      25.7000       26.3999
      25.7000       26.3999
      25.7000       26.3999
      25.7000       26.3999
      25.7000       26.3999
      25.7000       26.3999
      25.7000       26.3999
      25.7000       26.3999
      25.7000       26.3999
      25.7000       26.3999
      25.7000       26.3999
      25.7000       26.3999
      25.7000       26.3999
      25.7000       26.3999
      25.7000       26.3999
      25.7000       26.3999
      25.7000       26.3999
      25.7000       26.3999
      25.7000       26.3999
      25.7000       26.3999
      25.7000       26.3999
      25.7000       26.3999
      25.7000       26.3999
      25.7000       26.3999
      25.7000       26.3999
      25.7000       26.3999
      25.7000       26.3999
      25.7000       26.3999
      25.7000       26.3999
      25.7000       26.3999
      25.7000       26.3999
      25.7000       26.3999
      25.7000       26.3999
      25.7000       26.3999
      25.7000       26.3999
      25.7000       26.3999
      25.7000       26.3999
      25.7000       26.3999
      25.7000       26.3999
      25.7000       26.3999
      25.7000       26.3999
      25.7000       26.3999
      25.7000       26.3999
      25.7000       26.3999
      25.7000       26.3999
      25.7000       26.3999
      25.7000       26.3999
      25.7000       26.3999
      25.7000       26.3999
      25.7000       26.3999
      25.7000       26.3999
      25.7000       26.3999
      25.7000       26.3999
      25.7000       26.3999
      25.7000       26.3999
      25.7000       26.3999
      25.7000       26.3999
      25.7000       26.3999
      25.7000       26.3999
      25.7000       26.3999
      25.7000       26.3999
      25.7000       26.3999
      25.7000       26.3999
      25.7000       26.3999
      25.7000       26.3999
      25.7000       26.3999
      25.7000       26.3999
      25.7000       26.3999
      25.7000       26.3999
      25.7000       26.3999
      25.7000       26.3999
      25.7000       26.3999
      25.7000       26.3999
      25.7000       26.3999
      25.7000       26.3999
      25.7000       26.3999
      25.7000       26.3999
# background coefficients
       4.2076       -0.3771
       4.2422       -0.4022
       4.2901       -0.3945
       4.3496       -0.3548
       4.4190       -0.2843
       4.4965       -0.1848
       4.5802       -0.0588
       4.6679        0.0911
       4.7578        0.2617
       4.8477        0.4495
       4.9359        0.6505
       5.0204        0.8610
       5.0996        1.0767
       5.1719        1.2936
       5.2362        1.5074
       5.2913        1.7143
       5.3364        1.9105
       5.3710        2.0924
       5.3948        2.2568
       5.4077        2.4011
       5.4100        2.5228
       5.4024        2.6202
       5.3855        2.6919
       5.3603        2.7371
       5.3282        2.7558
       5.2906        2.7481
       5.2489        2.7150
       5.2049        2.6580
       5.1604        2.5790
       5.1172        2.4804
       5.0770        2.3650
       5.0417        2.2359
       5.0129        2.0965
       4.9923        1.9505
       4.9812        1.8016
       4.9809        1.6537
       4.9924        1.5105
       5.0166        1.3757
       5.0539        1.2529
       5.1046        1.1454
       5.1687        1.0560
       5.2460        0.9873
       5.3357        0.9416
       5.4370        0.9204
       5.5488        0.9249
       5.6696        0.9557
       5.7979        1.0129
       5.9319        1.0959
       6.0695        1.2036
       6.2087        1.3346
       6.3473        1.4866
       6.4829        1.6570
       6.6134        1.8430
       6.7365        2.0411
       6.8501        2.2477
       6.9521        2.4588
       7.0406        2.6706
       7.1140        2.8788
       7.1708        3.0793
       7.2097        3.2681
       7.2298        3.4414
       7.2305        3.5956
       7.2114        3.7272
       7.1726        3.8335
       7.1142        3.9119
       7.0370        3.9604
       6.9418        3.9776
       6.8299        3.9624
       6.7027        3.9146
       6.5621        3.8345
       6.4098        3.7228
       6.2481        3.5809
       6.0792        3.4110
       5.9055        3.2153
       5.7294        2.9969
       5.5535        2.7592
       5.3800        2.5059
       5.2115        2.2410
       5.0501        1.9688
       4.8980        1.6936
       4.7571        1.4199
       4.6291        1.1520
       4.5155        0.8944
       4.4176        0.6510
       4.3361        0.4259
       4.2718        0.2224
       4.2249        0.0437
       4.1955       -0.1075
       4.1832       -0.2290
       4.1876       -0.3193
# Peak positions (2 theta), intensity, half-width, weight Gauss/Lorentz (for pseudo-voigt),
# peak number        0
      26.0761        6.6447        0.0940        0.5000
      26.0783        6.6916        0.0940        0.5000
      26.0792        6.7045        0.0940        0.5000
      26.0789        6.6831        0.0940        0.5000
      26.0774        6.6278        0.0940        0.5000
      26.0747        6.5398        0.0940        0.5000
      26.0709        6.4207        0.0940        0.5000
      26.0661        6.2728        0.0940        0.5000
      26.0603        6.0991        0.0940        0.5000
      26.0536        5.9029        0.0940        0.5000
      26.0463        5.6881        0.0940        0.5000
      26.0385        5.4587        0.0940        0.5000
      26.0303        5.2194        0.0940        0.5000
      26.0218        4.9746        0.0940        0.5000
      26.0134        4.7293        0.0940        0.5000
      26.0050        4.4881        0.0940        0.5000
      25.9969        4.2559        0.0940        0.5000
      25.9893        4.0370        0.0940        0.5000
      25.9823        3.8357        0.0940        0.5000
      25.9760        3.6560        0.0940        0.5000
      25.9706        3.5014        0.0940        0.5000
      25.9662        3.3749        0.0940        0.5000
      25.9628        3.2789        0.0940        0.5000
      25.9605        3.2153        0.0940        0.5000
      25.9594        3.1853        0.0940        0.5000
      25.9595        3.1896        0.0940        0.5000
      25.9608        3.2280        0.0940        0.5000
      25.9632        3.2999        0.0940        0.5000
      25.9667        3.4037        0.0940        0.5000
      25.9713        3.5375        0.0940        0.5000
      25.9768        3.6986        0.0940        0.5000
      25.9832        3.8840        0.0940        0.5000
      25.9903        4.0901        0.0940        0.5000
      25.9980        4.3127        0.0940        0.5000
      26.0061        4.5476        0.0940        0.5000
      26.0144        4.7903        0.0940        0.5000
      26.0229        5.0359        0.0940        0.5000
      26.0313        5.2798        0.0940        0.5000
      26.0394        5.5171        0.0940        0.5000
      26.0472        5.7432        0.0940        0.5000
      26.0544        5.9538        0.0940        0.5000
      26.0608        6.1447        0.0940        0.5000
      26.0665        6.3123        0.0940        0.5000
      26.0711        6.4532        0.0940        0.5000
      26.0748        6.5647        0.0940        0.5000
      26.0773        6.6447        0.0940        0.5000
      26.0786        6.6916        0.0940        0.5000
      26.0786        6.7045        0.0940        0.5000
      26.0775        6.6831        0.0940        0.5000
      26.0751        6.6278        0.0940        0.5000
      26.0716        6.5398        0.0940        0.5000
      26.0670        6.4207        0.0940        0.5000
      26.0613        6.2728        0.0940        0.5000
      26.0547        6.0991        0.0940        0.5000
      26.0474        5.9029        0.0940        0.5000
      26.0393        5.6881        0.0940        0.5000
      26.0308        5.4587        0.0940        0.5000
      26.0220        5.2194        0.0940        0.5000
      26.0129        4.9746        0.0940        0.5000
      26.0039        4.7293        0.0940        0.5000
      25.9950        4.4881        0.0940        0.5000
      25.9865        4.2559        0.0940        0.5000
      25.9785        4.0370        0.0940        0.5000
      25.9711        3.8357        0.0940        0.5000
      25.9645        3.6560        0.0940        0.5000
      25.9588        3.5014        0.0940        0.5000
      25.9542        3.3749        0.0940        0.5000
      25.9507        3.2789        0.0940        0.5000
      25.9483        3.2153        0.0940        0.5000
      25.9472        3.1853        0.0940        0.5000
      25.9473        3.1896        0.0940        0.5000
      25.9487        3.2280        0.0940        0.5000
      25.9513        3.2999        0.0940        0.5000
      25.9550        3.4037        0.0940        0.5000
      25.9599        3.5375        0.0940        0.5000
      25.9657        3.6986        0.0940        0.5000
      25.9725        3.8840        0.0940        0.5000
      25.9800        4.0901        0.0940        0.5000
      25.9882        4.3127        0.0940        0.5000
      25.9968        4.5476        0.0940        0.5000
      26.0057        4.7903        0.0940        0.5000
      26.0148        5.0359        0.0940        0.5000
      26.0238        5.2798        0.0940        0.5000
      26.0327        5.5171        0.0940        0.5000
      26.0412        5.7432        0.0940        0.5000
      26.0491        5.9538        0.0940        0.5000
      26.0564        6.1447        0.0940        0.5000
      26.0628        6.3123        0.0940        0.5000
      26.0683        6.4532        0.0940        0.5000
      26.0728        6.5647        0.0940        0.5000
